File: 2C/Test1551.csv
Request Year:,2018,,,,,,,,,,,,
Test:,1551,,,,,,,,,,,,
Test Description:,,,,,,,,,,,,,
TestRegime Name:,Aging_Performance,,,,,,,,,,,,
TestRegime Suffix:,SHP_LC,,,,,,,,,,,,
TestRegime CellSize:,18650,,,,,,,,,,,,
TestRegime Version:,1,,,,,,,,,,,,
Number Of Cells:,1,,,,,,,,,,,,
LotID:,,,,,,,,,,,,,
Lot Description:,,,,,,,,,,,,,
Date Made:,1/21/2003 12:00 AM,,,,,,,,,,,,
Origin:,Other,,,,,,,,,,,,
Requestor:,Admin,,,,,,,,,,,,
Product ID:,Default product,,,,,,,,,,,,
Storage Temp:,R.T./AMB,,,,,,,,,,,,
Storage Delay:,0 days,,,,,,,,,,,,
Test Temp:,R.T./AMB,,,,,,,,,,,,
Start Time:,4/25/2018 8:21 AM,,,,,,,,,,,,
End Time:,4/25/2018 5:06 PM,,,,,,,,,,,,
Operator Instructions:,,,,,,,,,,,,,
Test,Cell,Rack,Shelf,Position,Cell ID,Step,Total Time (Seconds),Voltage (V),Current (A),Charge Capacity (mAh),Discharge Capacity (mAh),TC1 (Â°C),
1551,1,SBT2050,2,9,,0,1,3.53155,0,0,0,24.6,
1551,1,SBT2050,2,9,,0,191,3.53225,0,0,0,24.9,
1551,1,SBT2050,2,9,,1,381,2.86444,-2.9359,0,66.058,27.2,
1551,1,SBT2050,2,9,,1,571,2.499609,-2.0254,0,212.249,32.7,
1551,1,SBT2050,2,9,,1,761,2.49956,-0.7706,0,280.034,32.3,
1551,1,SBT2050,2,9,,1,951,2.49981,-0.37624,0,308.384,29.9,
1551,1,SBT2050,2,9,,1,1141,2.4998,-0.23261,0,323.922,28.1,
1551,1,SBT2050,2,9,,1,1331,2.49986,-0.16565,0,334.245,27,
1551,1,SBT2050,2,9,,1,1521,2.49979,-0.12715,0,341.897,26.3,
1551,1,SBT2050,2,9,,1,1711,2.499931,-0.10324,0,347.932,25.9,
1551,1,SBT2050,2,9,,1,1901,2.49985,-0.08744,0,352.938,25.7,
1551,1,SBT2050,2,9,,1,2091,2.49988,-0.07664,0,357.255,25.5,
1551,1,SBT2050,2,9,,1,2281,2.49999,-0.06898,0,361.092,25.4,
1551,1,SBT2050,2,9,,1,2471,2.49986,-0.06375,0,364.59,25.3,
1551,1,SBT2050,2,9,,1,2661,2.49999,-0.05984,0,367.848,25.3,
1551,1,SBT2050,2,9,,1,2851,2.50001,-0.05679,0,370.924,25.3,
1551,1,SBT2050,2,9,,1,3041,2.49984,-0.05406,0,373.85,25.2,
1551,1,SBT2050,2,9,,1,3231,2.49995,-0.05195,0,376.649,25.2,
1551,1,SBT2050,2,9,,1,3421,2.499919,-0.04994,0,379.338,25.2,
1551,1,SBT2050,2,9,,1,3611,2.50001,-0.0485,0,381.933,25.2,
1551,1,SBT2050,2,9,,1,3801,2.499931,-0.047128,0,384.447,25.2,
1551,1,SBT2050,2,9,,1,3991,2.50003,-0.04558,0,386.89,25.2,
1551,1,SBT2050,2,9,,1,4181,2.49991,-0.044372,0,389.265,25.2,
1551,1,SBT2050,2,9,,1,4371,2.49998,-0.043369,0,391.58,25.2,
1551,1,SBT2050,2,9,,1,4561,2.50004,-0.042167,0,393.837,25.1,
1551,1,SBT2050,2,9,,1,4751,2.50005,-0.04137,0,396.042,25.2,
1551,1,SBT2050,2,9,,1,4941,2.4999,-0.040418,0,398.201,25.1,
1551,1,SBT2050,2,9,,1,5131,2.50013,-0.039695,0,400.316,25.1,
1551,1,SBT2050,2,9,,1,5321,2.5,-0.038971,0,402.389,25.1,
1551,1,SBT2050,2,9,,1,5511,2.4999,-0.038153,0,404.426,25.1,
1551,1,SBT2050,2,9,,1,5701,2.50004,-0.037452,0,406.426,25.1,
1551,1,SBT2050,2,9,,1,5891,2.49981,-0.036893,0,408.393,25.1,
1551,1,SBT2050,2,9,,1,6081,2.50003,-0.036495,0,410.329,25.1,
1551,1,SBT2050,2,9,,1,6271,2.49984,-0.035817,0,412.234,25.1,
1551,1,SBT2050,2,9,,1,6461,2.49987,-0.035194,0,414.11,25.1,
1551,1,SBT2050,2,9,,1,6651,2.50013,-0.034875,0,415.959,25.1,
1551,1,SBT2050,2,9,,1,6841,2.49997,-0.0344,0,417.782,25.1,
1551,1,SBT2050,2,9,,1,7031,2.50001,-0.033859,0,419.581,25.1,
1551,1,SBT2050,2,9,,1,7221,2.50004,-0.03339,0,421.357,25.2,
1551,1,SBT2050,2,9,,1,7411,2.499931,-0.032888,0,423.109,25.1,
1551,1,SBT2050,2,9,,1,7601,2.50017,-0.032584,0,424.839,25.1,
1551,1,SBT2050,2,9,,1,7791,2.49994,-0.032082,0,426.546,25.1,
1551,1,SBT2050,2,9,,1,7981,2.50012,-0.031916,0,428.232,25.1,
1551,1,SBT2050,2,9,,1,8171,2.50012,-0.031366,0,429.898,25.1,
1551,1,SBT2050,2,9,,1,8361,2.50004,-0.031084,0,431.543,25.1,
1551,1,SBT2050,2,9,,1,8551,2.49988,-0.030523,0,433.169,25.1,
1551,1,SBT2050,2,9,,1,8741,2.50011,-0.030293,0,434.775,25.1,
1551,1,SBT2050,2,9,,1,8931,2.50015,-0.029996,0,436.362,25.1,
1551,1,SBT2050,2,9,,1,9121,2.50013,-0.029557,0,437.932,25.1,
1551,1,SBT2050,2,9,,1,9311,2.499931,-0.02924,0,439.482,25.1,
1551,1,SBT2050,2,9,,1,9501,2.50012,-0.028838,0,441.014,25.1,
1551,1,SBT2050,2,9,,1,9691,2.49991,-0.028591,0,442.528,25.1,
1551,1,SBT2050,2,9,,1,9881,2.500098,-0.028129,0,444.027,25.1,
1551,1,SBT2050,2,9,,1,10071,2.49994,-0.027957,0,445.511,25.1,
1551,1,SBT2050,2,9,,1,10261,2.50004,-0.027723,0,446.98,25.1,
1551,1,SBT2050,2,9,,1,10451,2.50012,-0.027407,0,448.434,25.1,
1551,1,SBT2050,2,9,,1,10641,2.49997,-0.027206,0,449.873,25.1,
1551,1,SBT2050,2,9,,1,10831,2.500098,-0.026917,0,451.298,25.1,
1551,1,SBT2050,2,9,,1,11021,2.50011,-0.02663,0,452.707,25.1,
1551,1,SBT2050,2,9,,1,11211,2.50021,-0.026342,0,454.1,25,
1551,1,SBT2050,2,9,,1,11401,2.50003,-0.02603,0,455.477,25.1,
1551,1,SBT2050,2,9,,1,11591,2.49997,-0.025743,0,456.839,25.1,
1551,1,SBT2050,2,9,,1,11781,2.50003,-0.025365,0,458.185,25.1,
1551,1,SBT2050,2,9,,1,11971,2.50012,-0.025146,0,459.516,25.1,
1551,1,SBT2050,2,9,,1,12161,2.49997,-0.024718,0,460.832,25.1,
1551,1,SBT2050,2,9,,1,12351,2.50004,-0.024495,0,462.133,25.1,
1551,1,SBT2050,2,9,,1,12541,2.50003,-0.02423,0,463.419,25.1,
1551,1,SBT2050,2,9,,1,12731,2.49999,-0.024014,0,464.692,25,
1551,1,SBT2050,2,9,,1,12921,2.49986,-0.023677,0,465.95,25.1,
1551,1,SBT2050,2,9,,1,13111,2.4999,-0.023407,0,467.195,25.1,
1551,1,SBT2050,2,9,,1,13301,2.49985,-0.023112,0,468.426,25.1,
1551,1,SBT2050,2,9,,1,13491,2.49988,-0.022857,0,469.643,25.1,
1551,1,SBT2050,2,9,,1,13681,2.50001,-0.022793,0,470.846,25.1,
1551,1,SBT2050,2,9,,1,13871,2.50005,-0.022412,0,472.036,25,
1551,1,SBT2050,2,9,,1,14061,2.500074,-0.022194,0,473.212,25.1,
1551,1,SBT2050,2,9,,1,14251,2.49997,-0.021876,0,474.376,25,
1551,1,SBT2050,2,9,,1,14441,2.50012,-0.021755,0,475.526,25.1,
1551,1,SBT2050,2,9,,1,14631,2.50013,-0.021387,0,476.663,25,
1551,1,SBT2050,2,9,,1,14821,2.50001,-0.021211,0,477.786,25.1,
1551,1,SBT2050,2,9,,1,15011,2.49985,-0.020785,0,478.894,25,
1551,1,SBT2050,2,9,,1,15201,2.49998,-0.020576,0,479.988,25,
1551,1,SBT2050,2,9,,1,15391,2.49999,-0.020311,0,481.068,25.1,
1551,1,SBT2050,2,9,,1,15581,2.500074,-0.02012,0,482.136,25,
1551,1,SBT2050,2,9,,1,15771,2.5,-0.019916,0,483.193,25,
1551,1,SBT2050,2,9,,1,15961,2.50018,-0.019704,0,484.238,25,
1551,1,SBT2050,2,9,,1,16151,2.50021,-0.01957,0,485.271,25.1,
1551,1,SBT2050,2,9,,1,16341,2.50001,-0.019249,0,486.294,25,
1551,1,SBT2050,2,9,,1,16531,2.50003,-0.019174,0,487.307,25.1,
1551,1,SBT2050,2,9,,1,16721,2.50001,-0.018947,0,488.309,25,
1551,1,SBT2050,2,9,,1,16911,2.499919,-0.018665,0,489.303,25,
1551,1,SBT2050,2,9,,1,17101,2.5,-0.018561,0,490.288,25,
1551,1,SBT2050,2,9,,1,17291,2.500086,-0.018412,0,491.266,25,
1551,1,SBT2050,2,9,,1,17481,2.5,-0.018359,0,492.235,25,
1551,1,SBT2050,2,9,,1,17671,2.49994,-0.018084,0,493.197,25,
1551,1,SBT2050,2,9,,1,17861,2.499931,-0.018048,0,494.15,25,
1551,1,SBT2050,2,9,,1,18051,2.50006,-0.017905,0,495.096,25,
1551,1,SBT2050,2,9,,1,18241,2.50001,-0.017647,0,496.033,25.1,
1551,1,SBT2050,2,9,,1,18431,2.49981,-0.017441,0,496.962,25,
1551,1,SBT2050,2,9,,1,18621,2.49999,-0.017208,0,497.881,25,
1551,1,SBT2050,2,9,,1,18811,2.50001,-0.017246,0,498.793,25,
1551,1,SBT2050,2,9,,1,19001,2.50015,-0.017048,0,499.695,25,
1551,1,SBT2050,2,9,,1,19191,2.50005,-0.016888,0,500.59,25,
1551,1,SBT2050,2,9,,1,19381,2.49995,-0.01669,0,501.476,25,
1551,1,SBT2050,2,9,,1,19571,2.500074,-0.016614,0,502.355,25,
1551,1,SBT2050,2,9,,1,19761,2.49994,-0.016369,0,503.226,25,
1551,1,SBT2050,2,9,,1,19951,2.50003,-0.016283,0,504.089,25,
1551,1,SBT2050,2,9,,1,20141,2.49991,-0.016169,0,504.944,25,
1551,1,SBT2050,2,9,,1,20331,2.500086,-0.015945,0,505.791,25,
1551,1,SBT2050,2,9,,1,20521,2.49997,-0.015779,0,506.631,25,
1551,1,SBT2050,2,9,,1,20711,2.49988,-0.015617,0,507.463,25,
1551,1,SBT2050,2,9,,1,20901,2.499931,-0.015448,0,508.287,25,
1551,1,SBT2050,2,9,,1,21091,2.49984,-0.015291,0,509.104,25,
1551,1,SBT2050,2,9,,1,21281,2.5,-0.01523,0,509.914,25,
1551,1,SBT2050,2,9,,1,21471,2.50005,-0.015139,0,510.716,25,
1551,1,SBT2050,2,9,,1,21661,2.499919,-0.014958,0,511.51,25,
1551,1,SBT2050,2,9,,1,21851,2.49997,-0.014938,0,512.297,25,
1551,1,SBT2050,2,9,,1,22041,2.50001,-0.014753,0,513.077,25,
1551,1,SBT2050,2,9,,1,22231,2.499752,-0.014414,0,513.85,25,
1551,1,SBT2050,2,9,,1,22421,2.50011,-0.014551,0,514.616,25,
1551,1,SBT2050,2,9,,1,22611,2.499919,-0.014235,0,515.375,25,
1551,1,SBT2050,2,9,,1,22801,2.50006,-0.01422,0,516.127,25,
1551,1,SBT2050,2,9,,1,22991,2.50029,-0.01431,0,516.872,25,
1551,1,SBT2050,2,9,,1,23181,2.50001,-0.013842,0,517.61,25,
1551,1,SBT2050,2,9,,1,23371,2.500098,-0.013915,0,518.342,25,
1551,1,SBT2050,2,9,,1,23561,2.500074,-0.013705,0,519.067,25,
1551,1,SBT2050,2,9,,1,23751,2.5,-0.013582,0,519.785,25,
1551,1,SBT2050,2,9,,1,23941,2.49997,-0.013399,0,520.497,25,
1551,1,SBT2050,2,9,,1,24131,2.49999,-0.013431,0,521.202,25,
1551,1,SBT2050,2,9,,1,24321,2.49994,-0.013195,0,521.901,25,
1551,1,SBT2050,2,9,,1,24511,2.49991,-0.013063,0,522.593,25,
1551,1,SBT2050,2,9,,1,24701,2.499919,-0.012894,0,523.278,25,
1551,1,SBT2050,2,9,,1,24891,2.499919,-0.012756,0,523.957,25,
1551,1,SBT2050,2,9,,1,25081,2.50006,-0.012679,0,524.63,25,
1551,1,SBT2050,2,9,,1,25271,2.49988,-0.012454,0,525.296,25,
1551,1,SBT2050,2,9,,1,25461,2.50019,-0.012427,0,525.955,25,
1551,1,SBT2050,2,9,,1,25651,2.499931,-0.012148,0,526.607,25,
1551,1,SBT2050,2,9,,1,25841,2.50006,-0.012178,0,527.252,25,
1551,1,SBT2050,2,9,,1,26031,2.499931,-0.012006,0,527.892,25,
1551,1,SBT2050,2,9,,1,26221,2.50004,-0.01189,0,528.525,25,
1551,1,SBT2050,2,9,,1,26411,2.50016,-0.011828,0,529.152,25,
1551,1,SBT2050,2,9,,1,26601,2.5,-0.011674,0,529.773,25,
1551,1,SBT2050,2,9,,1,26791,2.50003,-0.011518,0,530.389,25,
1551,1,SBT2050,2,9,,1,26981,2.50013,-0.011579,0,530.998,25,
1551,1,SBT2050,2,9,,1,27171,2.500074,-0.011389,0,531.602,25,
1551,1,SBT2050,2,9,,1,27361,2.500098,-0.011389,0,532.2,25,
1551,1,SBT2050,2,9,,1,27551,2.49991,-0.011133,0,532.792,25,
1551,1,SBT2050,2,9,,1,27741,2.49999,-0.011055,0,533.379,25,
1551,1,SBT2050,2,9,,1,27931,2.5003,-0.01106,0,533.962,25,
1551,1,SBT2050,2,9,,1,28121,2.50005,-0.010894,0,534.538,25,
1551,1,SBT2050,2,9,,1,28311,2.50003,-0.010837,0,535.11,25,
1551,1,SBT2050,2,9,,1,28501,2.50013,-0.010686,0,535.676,25,
1551,1,SBT2050,2,9,,1,28691,2.500074,-0.010663,0,536.237,25,
1551,1,SBT2050,2,9,,1,28881,2.500074,-0.010528,0,536.794,25,
1551,1,SBT2050,2,9,,1,29071,2.500086,-0.010412,0,537.346,25,
1551,1,SBT2050,2,9,,1,29261,2.499931,-0.010345,0,537.893,25,
1551,1,SBT2050,2,9,,1,29451,2.49982,-0.010257,0,538.435,25,
1551,1,SBT2050,2,9,,2,29640,3.91191,2.9361,69.13,538.73,26.3,
1551,1,SBT2050,2,9,,2,29830,4.011004,2.9361,224.083,538.73,30.4,
1551,1,SBT2050,2,9,,2,30020,4.054136,2.9355,379.037,538.73,32.2,
1551,1,SBT2050,2,9,,2,30210,4.12034,2.936,533.99,538.73,32.9,
1551,1,SBT2050,2,9,,2,30400,4.1501,2.5136,681.504,538.73,33.2,
1551,1,SBT2050,2,9,,2,30590,4.15022,1.969,798.968,538.73,32.3,
1551,1,SBT2050,2,9,,2,30780,4.14995,1.7366,894.833,538.73,32,
1551,1,SBT2050,2,9,,2,30970,4.14989,1.9621,990.478,538.73,35.3,
1551,1,SBT2050,2,9,,2,31160,4.14991,2.4749,1107.125,538.73,43.3,
1551,1,SBT2050,2,9,,2,31350,4.150054,2.8848,1249.685,538.73,53.5,
1551,1,SBT2050,2,9,,2,31490.002,4.14652,-2.9356,1363.547,538.73,60.2,