File: 2C/Test1408.csv
Request Year:,2018,,,,,,,,,,,,
Test:,1408,,,,,,,,,,,,
Test Description:,,,,,,,,,,,,,
TestRegime Name:,Aging_Performance,,,,,,,,,,,,
TestRegime Suffix:,SHP_LC,,,,,,,,,,,,
TestRegime CellSize:,18650,,,,,,,,,,,,
TestRegime Version:,1,,,,,,,,,,,,
Number Of Cells:,1,,,,,,,,,,,,
LotID:,,,,,,,,,,,,,
Lot Description:,,,,,,,,,,,,,
Date Made:,1/21/2003 12:00 AM,,,,,,,,,,,,
Origin:,Other,,,,,,,,,,,,
Requestor:,Admin,,,,,,,,,,,,
Product ID:,Default product,,,,,,,,,,,,
Storage Temp:,R.T./AMB,,,,,,,,,,,,
Storage Delay:,0 days,,,,,,,,,,,,
Test Temp:,R.T./AMB,,,,,,,,,,,,
Start Time:,3/27/2018 10:02 AM,,,,,,,,,,,,
End Time:,3/27/2018 4:21 PM,,,,,,,,,,,,
Operator Instructions:,,,,,,,,,,,,,
Test,Cell,Rack,Shelf,Position,Cell ID,Step,Total Time (Seconds),Voltage (V),Current (A),Charge Capacity (mAh),Discharge Capacity (mAh),TC1 (Â°C),
1408,1,SBT2050,2,9,,0,1,3.27506,0,0,0,24.9,
1408,1,SBT2050,2,9,,0,149,3.275856,0,0,0,24.8,
1408,1,SBT2050,2,9,,0,297,3.27725,0,0,0,24.9,
1408,1,SBT2050,2,9,,1,445,2.49958,-1.0148,0,74.358,28.1,
1408,1,SBT2050,2,9,,1,593,2.49914,-0.2002,0,97.445,27.7,
1408,1,SBT2050,2,9,,1,741,2.49996,-0.05107,0,101.376,26.7,
1408,1,SBT2050,2,9,,1,889,2.49993,-0.032078,0,103.006,26,
1408,1,SBT2050,2,9,,1,1037,2.49982,-0.02484,0,104.165,25.5,
1408,1,SBT2050,2,9,,1,1185,2.49988,-0.020863,0,105.103,25.3,
1408,1,SBT2050,2,9,,1,1333,2.50001,-0.018148,0,105.902,25.2,
1408,1,SBT2050,2,9,,1,1481,2.49988,-0.015985,0,106.602,25,
1408,1,SBT2050,2,9,,1,1629,2.49977,-0.014135,0,107.221,25,
1408,1,SBT2050,2,9,,1,1777,2.49996,-0.012476,0,107.767,24.9,
1408,1,SBT2050,2,9,,1,1925,2.500023,-0.011311,0,108.253,24.9,
1408,1,SBT2050,2,9,,1,2073,2.49994,-0.010348,0,108.696,24.9,
1408,1,SBT2050,2,9,,2,2220,3.59991,2.9361,103.697,108.752,25.6,
1408,1,SBT2050,2,9,,2,2368,3.64789,2.936,224.398,108.752,27.1,
1408,1,SBT2050,2,9,,2,2516,3.683732,2.9362,345.098,108.752,27.9,
1408,1,SBT2050,2,9,,2,2664,3.714756,2.9355,465.799,108.752,28.4,
1408,1,SBT2050,2,9,,2,2812,3.7421,2.936,586.499,108.752,28.5,
1408,1,SBT2050,2,9,,2,2960,3.76946,2.9358,707.2,108.752,28.6,
1408,1,SBT2050,2,9,,2,3108,3.796544,2.9359,827.9,108.752,28.6,
1408,1,SBT2050,2,9,,2,3256,3.824788,2.9359,948.601,108.752,28.7,
1408,1,SBT2050,2,9,,2,3404,3.855018,2.9359,1069.301,108.752,28.8,
1408,1,SBT2050,2,9,,2,3552,3.88842,2.9361,1190.002,108.752,29,
1408,1,SBT2050,2,9,,2,3700,3.92585,2.9359,1310.702,108.752,29.1,
1408,1,SBT2050,2,9,,2,3848,3.9669,2.9363,1431.403,108.752,29.3,
1408,1,SBT2050,2,9,,2,3996,4.009808,2.9358,1552.103,108.752,29.4,
1408,1,SBT2050,2,9,,2,4144,4.05392,2.936,1672.804,108.752,29.6,
1408,1,SBT2050,2,9,,2,4292,4.09726,2.9356,1793.505,108.752,29.7,
1408,1,SBT2050,2,9,,2,4440,4.14067,2.9357,1914.205,108.752,29.8,
1408,1,SBT2050,2,9,,2,4588,4.15003,2.4805,2026.776,108.752,29.7,
1408,1,SBT2050,2,9,,2,4736,4.15024,2.0345,2119.336,108.752,29.2,
1408,1,SBT2050,2,9,,2,4884,4.15015,1.6629,2195.087,108.752,28.6,
1408,1,SBT2050,2,9,,2,5032,4.15001,1.3643,2257.082,108.752,27.8,
1408,1,SBT2050,2,9,,2,5180,4.15014,1.1285,2308.094,108.752,27.2,
1408,1,SBT2050,2,9,,2,5328,4.15004,0.9433,2350.52,108.752,26.7,
1408,1,SBT2050,2,9,,2,5476,4.15013,0.799,2386.196,108.752,26.3,
1408,1,SBT2050,2,9,,2,5624,4.150078,0.6858,2416.622,108.752,26,
1408,1,SBT2050,2,9,,2,5772,4.14997,0.5956,2442.879,108.752,25.7,
1408,1,SBT2050,2,9,,2,5920,4.15011,0.524,2465.808,108.752,25.6,
1408,1,SBT2050,2,9,,2,6068,4.14996,0.46292,2486.026,108.752,25.4,
1408,1,SBT2050,2,9,,2,6216,4.15004,0.41408,2504.012,108.752,25.3,
1408,1,SBT2050,2,9,,2,6364,4.15003,0.37107,2520.102,108.752,25.3,
1408,1,SBT2050,2,9,,2,6512,4.14992,0.33354,2534.553,108.752,25.2,
1408,1,SBT2050,2,9,,2,6660,4.14997,0.30136,2547.606,108.752,25.2,
1408,1,SBT2050,2,9,,2,6808,4.15011,0.27353,2559.41,108.752,25.1,
1408,1,SBT2050,2,9,,2,6956,4.14997,0.24713,2570.112,108.752,25.1,
1408,1,SBT2050,2,9,,2,7104,4.15009,0.22498,2579.807,108.752,25,
1408,1,SBT2050,2,9,,2,7252,4.150078,0.204,2588.632,108.752,25,
1408,1,SBT2050,2,9,,2,7400,4.15013,0.18647,2596.678,108.752,25,
1408,1,SBT2050,2,9,,2,7548,4.15021,0.1703,2604.017,108.752,25,
1408,1,SBT2050,2,9,,2,7696,4.150102,0.15549,2610.693,108.752,24.9,
1408,1,SBT2050,2,9,,2,7844,4.14997,0.14216,2616.795,108.752,24.9,
1408,1,SBT2050,2,9,,2,7992,4.150054,0.13019,2622.383,108.752,24.9,
1408,1,SBT2050,2,9,,2,8140,4.14991,0.11861,2627.501,108.752,24.9,
1408,1,SBT2050,2,9,,2,8288,4.150078,0.10896,2632.177,108.752,24.9,
1408,1,SBT2050,2,9,,2,8436,4.15024,0.09965,2636.465,108.752,24.9,
1408,1,SBT2050,2,9,,2,8584,4.15002,0.09182,2640.396,108.752,24.9,
1408,1,SBT2050,2,9,,2,8732,4.14997,0.08462,2643.996,108.752,24.9,
1408,1,SBT2050,2,9,,2,8880,4.14989,0.07693,2647.31,108.752,24.9,
1408,1,SBT2050,2,9,,2,9028,4.15002,0.07118,2650.357,108.752,24.9,
1408,1,SBT2050,2,9,,2,9176,4.150054,0.06537,2653.149,108.752,24.9,
1408,1,SBT2050,2,9,,2,9324,4.15024,0.06086,2655.729,108.752,24.9,
1408,1,SBT2050,2,9,,2,9472,4.15011,0.05582,2658.123,108.752,24.9,
1408,1,SBT2050,2,9,,2,9620,4.15024,0.05176,2660.336,108.752,24.8,
1408,1,SBT2050,2,9,,2,9768,4.15011,0.047288,2662.36,108.752,24.9,
1408,1,SBT2050,2,9,,2,9916,4.14983,0.044734,2664.239,108.752,24.9,
1408,1,SBT2050,2,9,,2,10064,4.15019,0.040998,2665.995,108.752,24.9,
1408,1,SBT2050,2,9,,2,10212,4.15035,0.03828,2667.624,108.752,24.9,
1408,1,SBT2050,2,9,,2,10360,4.15009,0.036109,2669.135,108.752,24.8,
1408,1,SBT2050,2,9,,2,10508,4.14993,0.032897,2670.546,108.752,24.8,
1408,1,SBT2050,2,9,,2,10656,4.150054,0.030957,2671.856,108.752,24.8,
1408,1,SBT2050,2,9,,2,10804,4.150078,0.027661,2673.076,108.752,24.8,
1408,1,SBT2050,2,9,,2,10952,4.14993,0.026206,2674.211,108.752,24.8,
1408,1,SBT2050,2,9,,2,11100,4.14998,0.024835,2675.264,108.752,24.8,
1408,1,SBT2050,2,9,,2,11248,4.150054,0.023555,2676.247,108.752,24.8,
1408,1,SBT2050,2,9,,2,11396,4.150066,0.02151,2677.179,108.752,24.8,
1408,1,SBT2050,2,9,,2,11544,4.1502,0.020026,2678.041,108.752,24.8,
1408,1,SBT2050,2,9,,2,11692,4.14988,0.019485,2678.84,108.752,24.8,
1408,1,SBT2050,2,9,,2,11840,4.14996,0.017945,2679.608,108.752,24.8,
1408,1,SBT2050,2,9,,2,11988,4.15017,0.016272,2680.321,108.752,24.8,
1408,1,SBT2050,2,9,,2,12136,4.14999,0.015824,2680.989,108.752,24.8,
1408,1,SBT2050,2,9,,2,12284,4.14991,0.014527,2681.626,108.752,24.8,
1408,1,SBT2050,2,9,,2,12432,4.14992,0.01428,2682.216,108.752,24.8,
1408,1,SBT2050,2,9,,2,12580,4.14993,0.013023,2682.778,108.752,24.8,
1408,1,SBT2050,2,9,,2,12728,4.15023,0.012761,2683.32,108.752,24.8,
1408,1,SBT2050,2,9,,2,12876,4.14995,0.012237,2683.851,108.752,24.8,
1408,1,SBT2050,2,9,,2,13024,4.14982,0.011065,2684.318,108.752,24.8,
1408,1,SBT2050,2,9,,2,13172,4.14982,0.010972,2684.773,108.752,24.8,
1408,1,SBT2050,2,9,,3,13319,4.1488,0,2685.061,108.752,24.8,
1408,1,SBT2050,2,9,,3,13467,4.148076,0,2685.061,108.752,24.8,
1408,1,SBT2050,2,9,,3,13615,4.148,0,2685.061,108.752,24.8,
1408,1,SBT2050,2,9,,3,13763,4.14767,0,2685.061,108.752,24.8,
1408,1,SBT2050,2,9,,3,13911,4.147758,0,2685.061,108.752,24.8,
1408,1,SBT2050,2,9,,3,14059,4.147664,0,2685.061,108.752,24.8,
1408,1,SBT2050,2,9,,3,14207,4.14721,0,2685.061,108.752,24.8,
1408,1,SBT2050,2,9,,3,14355,4.14723,0,2685.061,108.752,24.9,
1408,1,SBT2050,2,9,,3,14503,4.147036,0,2685.061,108.752,24.8,
1408,1,SBT2050,2,9,,3,14651,4.14693,0,2685.061,108.752,24.8,
1408,1,SBT2050,2,9,,3,14799,4.14686,0,2685.061,108.752,24.8,
1408,1,SBT2050,2,9,,3,14947,4.146722,0,2685.061,108.752,24.8,
1408,1,SBT2050,2,9,,4,15094,3.895,-2.9356,2685.061,127.531,25,
1408,1,SBT2050,2,9,,4,15242,3.83682,-2.9357,2685.061,248.23,26.4,
1408,1,SBT2050,2,9,,4,15390,3.80746,-2.9358,2685.061,368.93,27.2,
1408,1,SBT2050,2,9,,4,15538,3.76903,-2.936,2685.061,489.63,27.7,
1408,1,SBT2050,2,9,,4,15686,3.7272,-2.9359,2685.061,610.329,27.8,
1408,1,SBT2050,2,9,,4,15834,3.686926,-2.9359,2685.061,731.029,27.9,
1408,1,SBT2050,2,9,,4,15982,3.64857,-2.9363,2685.061,851.729,27.9,
1408,1,SBT2050,2,9,,4,16130,3.60802,-2.936,2685.061,972.428,28,
1408,1,SBT2050,2,9,,4,16278,3.565352,-2.9357,2685.061,1093.128,28.1,
1408,1,SBT2050,2,9,,4,16426,3.52134,-2.9359,2685.061,1213.828,28.2,
1408,1,SBT2050,2,9,,4,16574,3.47817,-2.936,2685.061,1334.527,28.2,
1408,1,SBT2050,2,9,,4,16722,3.43772,-2.9356,2685.061,1455.227,28.4,
1408,1,SBT2050,2,9,,4,16870,3.40127,-2.9361,2685.061,1575.927,28.4,
1408,1,SBT2050,2,9,,4,17018,3.36705,-2.9357,2685.061,1696.627,28.5,
1408,1,SBT2050,2,9,,4,17166,3.33288,-2.9361,2685.061,1817.327,28.6,
1408,1,SBT2050,2,9,,4,17314,3.29677,-2.9365,2685.061,1938.026,28.8,
1408,1,SBT2050,2,9,,4,17462,3.2554,-2.9358,2685.061,2058.726,29,
1408,1,SBT2050,2,9,,4,17610,3.20523,-2.9358,2685.061,2179.426,29.2,
1408,1,SBT2050,2,9,,4,17758,3.140211,-2.9358,2685.061,2300.125,29.8,
1408,1,SBT2050,2,9,,4,17906,3.046033,-2.9355,2685.061,2420.826,30.3,
1408,1,SBT2050,2,9,,4,18054,2.89185,-2.9356,2685.061,2541.525,31.4,
1408,1,SBT2050,2,9,,4,18202,2.56911,-2.9359,2685.061,2662.225,33.3,
1408,1,SBT2050,2,9,,4,18350,2.49951,-0.9851,2685.061,2742.947,34,
1408,1,SBT2050,2,9,,4,18498,2.499412,-0.24442,2685.061,2764.403,31.4,
1408,1,SBT2050,2,9,,4,18646,2.499913,-0.1018,2685.061,2770.616,29,
1408,1,SBT2050,2,9,,4,18794,2.499925,-0.07594,2685.061,2774.195,27.5,
1408,1,SBT2050,2,9,,4,18942,2.49995,-0.06153,2685.061,2777.002,26.6,
1408,1,SBT2050,2,9,,4,19090,2.49998,-0.05134,2685.061,2779.31,26,
1408,1,SBT2050,2,9,,4,19238,2.499913,-0.043408,2685.061,2781.249,25.7,
1408,1,SBT2050,2,9,,4,19386,2.5,-0.037262,2685.061,2782.904,25.4,
1408,1,SBT2050,2,9,,4,19534,2.499925,-0.032487,2685.061,2784.33,25.3,
1408,1,SBT2050,2,9,,4,19682,2.50004,-0.028133,2685.061,2785.569,25.1,
1408,1,SBT2050,2,9,,4,19830,2.500068,-0.024571,2685.061,2786.646,25.1,
1408,1,SBT2050,2,9,,4,19978,2.50008,-0.021585,2685.061,2787.592,25,
1408,1,SBT2050,2,9,,4,20126,2.5001,-0.019189,2685.061,2788.424,25,
1408,1,SBT2050,2,9,,4,20274,2.50006,-0.016743,2685.061,2789.156,25,
1408,1,SBT2050,2,9,,4,20422,2.49997,-0.014668,2685.061,2789.801,24.9,
1408,1,SBT2050,2,9,,4,20570,2.5,-0.013195,2685.061,2790.372,24.9,
1408,1,SBT2050,2,9,,4,20718,2.49996,-0.011809,2685.061,2790.887,24.9,
1408,1,SBT2050,2,9,,4,20866,2.50008,-0.010692,2685.061,2791.351,24.9,
1408,1,SBT2050,2,9,,5,21013,2.54832,0,2685.061,2791.594,24.9,
1408,1,SBT2050,2,9,,5,21161,2.61805,0,2685.061,2791.594,24.9,
1408,1,SBT2050,2,9,,5,21309,2.66487,0,2685.061,2791.594,24.9,
1408,1,SBT2050,2,9,,5,21457,2.698373,0,2685.061,2791.594,24.9,
1408,1,SBT2050,2,9,,5,21605,2.72299,0,2685.061,2791.594,24.8,
1408,1,SBT2050,2,9,,5,21753,2.7424,0,2685.061,2791.594,24.9,
1408,1,SBT2050,2,9,,5,21901,2.757897,0,2685.061,2791.594,24.9,
1408,1,SBT2050,2,9,,5,22049,2.77089,0,2685.061,2791.594,24.9,
1408,1,SBT2050,2,9,,5,22197,2.78146,0,2685.061,2791.594,24.8,
1408,1,SBT2050,2,9,,5,22345,2.79034,0,2685.061,2791.594,24.8,
1408,1,SBT2050,2,9,,5,22493,2.798585,0,2685.061,2791.594,24.8,
1408,1,SBT2050,2,9,,5,22641,2.80524,0,2685.061,2791.594,24.8,
1408,1,SBT2050,2,9,,5,22749.843,2.80984,-9.9E-05,2685.061,2791.594,,