File: 2C/Test1588.csv
Request Year:,2018,,,,,,,,,,,,
Test:,1588,,,,,,,,,,,,
Test Description:,,,,,,,,,,,,,
TestRegime Name:,Compare_2C,,,,,,,,,,,,
TestRegime Suffix:,SHP_LC,,,,,,,,,,,,
TestRegime CellSize:,18650,,,,,,,,,,,,
TestRegime Version:,1,,,,,,,,,,,,
Number Of Cells:,1,,,,,,,,,,,,
LotID:,,,,,,,,,,,,,
Lot Description:,,,,,,,,,,,,,
Date Made:,1/21/2003 12:00 AM,,,,,,,,,,,,
Origin:,Other,,,,,,,,,,,,
Requestor:,Admin,,,,,,,,,,,,
Product ID:,Default product,,,,,,,,,,,,
Storage Temp:,R.T./AMB,,,,,,,,,,,,
Storage Delay:,0 days,,,,,,,,,,,,
Test Temp:,R.T./AMB,,,,,,,,,,,,
Start Time:,5/3/2018 4:49 AM,,,,,,,,,,,,
End Time:,5/3/2018 7:11 AM,,,,,,,,,,,,
Operator Instructions:,,,,,,,,,,,,,
Test,Cell,Rack,Shelf,Position,Cell ID,Step,Total Time (Seconds),Voltage (V),Current (A),Charge Capacity (mAh),Discharge Capacity (mAh),TC1 (Â°C),
1588,1,SBT2050,2,9,,0,1,3.49436,0,0,0,24.8,
1588,1,SBT2050,2,9,,0,50,3.49407,0,0,0,24.9,
1588,1,SBT2050,2,9,,0,99,3.49414,0,0,0,25,
1588,1,SBT2050,2,9,,0,148,3.49391,0,0,0,25,
1588,1,SBT2050,2,9,,0,197,3.49408,0,0,0,25.2,
1588,1,SBT2050,2,9,,0,246,3.49389,0,0,0,25.2,
1588,1,SBT2050,2,9,,0,295,3.49405,0,0,0,25.2,
1588,1,SBT2050,2,9,,1,344,4.200124,4.6104,63.552,0,27.4,
1588,1,SBT2050,2,9,,1,393,4.20018,4.0768,121.908,0,29.7,
1588,1,SBT2050,2,9,,1,442,4.19996,3.9014,176.016,0,31.3,
1588,1,SBT2050,2,9,,1,491,4.20029,3.7866,228.379,0,32.6,
1588,1,SBT2050,2,9,,1,540,4.2,3.6388,278.942,0,33.4,
1588,1,SBT2050,2,9,,1,589,4.19998,3.4623,327.278,0,34,
1588,1,SBT2050,2,9,,1,638,4.20005,3.2736,373.127,0,34.4,
1588,1,SBT2050,2,9,,1,687,4.200124,3.0808,416.377,0,34.6,
1588,1,SBT2050,2,9,,1,736,4.20024,2.8891,456.994,0,34.6,
1588,1,SBT2050,2,9,,1,785,4.20021,2.7004,495.02,0,34.5,
1588,1,SBT2050,2,9,,1,834,4.200148,2.5221,530.554,0,34.2,
1588,1,SBT2050,2,9,,1,883,4.199862,2.3536,563.72,0,34,
1588,1,SBT2050,2,9,,1,932,4.200136,2.1977,594.672,0,33.6,
1588,1,SBT2050,2,9,,1,981,4.20009,2.0542,623.587,0,33.3,
1588,1,SBT2050,2,9,,1,1030,4.2,1.9243,650.649,0,32.8,
1588,1,SBT2050,2,9,,1,1079,4.200124,1.8077,676.024,0,32.5,
1588,1,SBT2050,2,9,,1,1128,4.200172,1.7091,699.934,0,32.1,
1588,1,SBT2050,2,9,,1,1177,4.200136,1.6287,722.627,0,31.9,
1588,1,SBT2050,2,9,,1,1226,4.20008,1.5669,744.352,0,31.6,
1588,1,SBT2050,2,9,,1,1275,4.19993,1.5237,765.365,0,31.6,
1588,1,SBT2050,2,9,,1,1324,4.20026,1.4973,785.906,0,31.6,
1588,1,SBT2050,2,9,,1,1373,4.200136,1.4888,806.207,0,31.7,
1588,1,SBT2050,2,9,,1,1422,4.19998,1.4966,826.511,0,32.1,
1588,1,SBT2050,2,9,,1,1471,4.19975,1.5189,847.02,0,32.6,
1588,1,SBT2050,2,9,,1,1520,4.199826,1.5568,867.943,0,33.3,
1588,1,SBT2050,2,9,,1,1569,4.19977,1.6043,889.449,0,34.2,
1588,1,SBT2050,2,9,,1,1618,4.20004,1.6601,911.657,0,35.2,
1588,1,SBT2050,2,9,,1,1667,4.19985,1.7208,934.655,0,36.5,
1588,1,SBT2050,2,9,,1,1716,4.19979,1.7843,958.505,0,37.7,
1588,1,SBT2050,2,9,,1,1765,4.1999,1.8551,983.275,0,39.3,
1588,1,SBT2050,2,9,,1,1814,4.20004,1.9198,1008.965,0,40.8,
1588,1,SBT2050,2,9,,1,1863,4.19996,1.9864,1035.559,0,42.5,
1588,1,SBT2050,2,9,,1,1912,4.20006,2.0466,1063.012,0,44.3,
1588,1,SBT2050,2,9,,1,1961,4.20009,2.098,1091.226,0,46.1,
1588,1,SBT2050,2,9,,1,2010,4.19995,2.1417,1120.098,0,47.9,
1588,1,SBT2050,2,9,,1,2059,4.19992,2.1713,1149.467,0,49.5,
1588,1,SBT2050,2,9,,1,2108,4.200136,2.1942,1179.19,0,51.2,
1588,1,SBT2050,2,9,,1,2157,4.19985,2.2051,1209.146,0,52.8,
1588,1,SBT2050,2,9,,1,2206,4.20002,2.2036,1239.151,0,54,
1588,1,SBT2050,2,9,,1,2255,4.199838,2.1927,1269.079,0,55.3,
1588,1,SBT2050,2,9,,1,2304,4.200148,2.1743,1298.802,0,56.4,
1588,1,SBT2050,2,9,,1,2353,4.19999,2.1476,1328.223,0,57.1,
1588,1,SBT2050,2,9,,1,2402,4.19987,2.1113,1357.223,0,57.8,
1588,1,SBT2050,2,9,,1,2451,4.19991,2.0708,1385.693,0,58.4,
1588,1,SBT2050,2,9,,1,2500,4.19997,2.0285,1413.59,0,58.8,
1588,1,SBT2050,2,9,,1,2549,4.20009,1.9844,1440.919,0,59,
1588,1,SBT2050,2,9,,1,2598,4.20027,1.9368,1467.61,0,59,
1588,1,SBT2050,2,9,,1,2647,4.19992,1.8885,1493.635,0,58.9,
1588,1,SBT2050,2,9,,1,2696,4.20024,1.8421,1519.018,0,58.9,
1588,1,SBT2050,2,9,,1,2745,4.2,1.7964,1543.773,0,58.6,
1588,1,SBT2050,2,9,,1,2794,4.200124,1.7458,1567.882,0,58.3,
1588,1,SBT2050,2,9,,1,2843,4.200136,1.6959,1591.306,0,58,
1588,1,SBT2050,2,9,,1,2892,4.2001,1.6438,1614.036,0,57.5,
1588,1,SBT2050,2,9,,1,2941,4.20016,1.5983,1636.098,0,57,
1588,1,SBT2050,2,9,,1,2990,4.19999,1.5515,1657.539,0,56.6,
1588,1,SBT2050,2,9,,1,3039,4.20023,1.5035,1678.331,0,56,
1588,1,SBT2050,2,9,,1,3088,4.19985,1.4627,1698.529,0,55.4,
1588,1,SBT2050,2,9,,1,3137,4.19989,1.4201,1718.153,0,54.8,
1588,1,SBT2050,2,9,,1,3186,4.19991,1.379,1737.187,0,54.2,
1588,1,SBT2050,2,9,,1,3235,4.19975,1.3426,1755.703,0,53.7,
1588,1,SBT2050,2,9,,1,3284,4.199838,1.3086,1773.727,0,53.2,
1588,1,SBT2050,2,9,,1,3333,4.19999,1.2734,1791.285,0,52.5,
1588,1,SBT2050,2,9,,1,3382,4.20021,1.2367,1808.374,0,52,
1588,1,SBT2050,2,9,,1,3431,4.19992,1.2074,1825.012,0,51.4,
1588,1,SBT2050,2,9,,1,3480,4.19997,1.1785,1841.246,0,51,
1588,1,SBT2050,2,9,,1,3529,4.20004,1.1474,1857.059,0,50.4,
1588,1,SBT2050,2,9,,1,3578,4.19979,1.1193,1872.486,0,50,
1588,1,SBT2050,2,9,,1,3627,4.20006,1.0909,1887.533,0,49.4,
1588,1,SBT2050,2,9,,1,3676,4.20031,1.0658,1902.221,0,48.9,
1588,1,SBT2050,2,9,,1,3725,4.19999,1.043,1916.573,0,48.4,
1588,1,SBT2050,2,9,,1,3774,4.200148,1.0203,1930.617,0,48,
1588,1,SBT2050,2,9,,1,3823,4.20006,0.9999,1944.369,0,47.6,
1588,1,SBT2050,2,9,,1,3872,4.20002,0.9805,1957.85,0,47.2,
1588,1,SBT2050,2,9,,1,3921,4.19999,0.9594,1971.056,0,46.8,
1588,1,SBT2050,2,9,,1,3970,4.19996,0.9408,1983.977,0,46.4,
1588,1,SBT2050,2,9,,1,4019,4.20022,0.9242,1996.67,0,46.1,
1588,1,SBT2050,2,9,,1,4068,4.19999,0.9083,2009.146,0,45.7,
1588,1,SBT2050,2,9,,1,4117,4.20002,0.8913,2021.39,0,45.4,
1588,1,SBT2050,2,9,,1,4166,4.19998,0.8772,2033.43,0,45.1,
1588,1,SBT2050,2,9,,1,4215,4.2001,0.8633,2045.281,0,44.7,
1588,1,SBT2050,2,9,,1,4264,4.19977,0.852,2056.956,0,44.5,
1588,1,SBT2050,2,9,,1,4313,4.2002,0.8411,2068.473,0,44.2,
1588,1,SBT2050,2,9,,1,4362,4.20027,0.8325,2079.865,0,44,
1588,1,SBT2050,2,9,,1,4411,4.20004,0.8226,2091.131,0,43.8,
1588,1,SBT2050,2,9,,1,4460,4.2,0.8127,2102.255,0,43.6,
1588,1,SBT2050,2,9,,1,4509,4.20005,0.8059,2113.268,0,43.4,
1588,1,SBT2050,2,9,,1,4558,4.19997,0.7986,2124.186,0,43.2,
1588,1,SBT2050,2,9,,1,4607,4.20004,0.7917,2134.997,0,43.1,
1588,1,SBT2050,2,9,,1,4656,4.2001,0.7851,2145.724,0,42.9,
1588,1,SBT2050,2,9,,1,4705,4.20026,0.7798,2156.383,0,42.7,
1588,1,SBT2050,2,9,,1,4754,4.199862,0.7747,2166.965,0,42.7,
1588,1,SBT2050,2,9,,1,4803,4.20027,0.7704,2177.479,0,42.5,
1588,1,SBT2050,2,9,,1,4852,4.19987,0.7669,2187.944,0,42.5,
1588,1,SBT2050,2,9,,1,4901,4.20024,0.7639,2198.359,0,42.4,
1588,1,SBT2050,2,9,,1,4950,4.19998,0.7625,2208.747,0,42.3,
1588,1,SBT2050,2,9,,1,4999,4.19979,0.7594,2219.099,0,42.3,
1588,1,SBT2050,2,9,,1,5048,4.1999,0.7553,2229.402,0,42.2,
1588,1,SBT2050,2,9,,1,5097,4.19996,0.7533,2239.659,0,42.2,
1588,1,SBT2050,2,9,,1,5146,4.20004,0.7516,2249.899,0,42.2,
1588,1,SBT2050,2,9,,1,5195,4.20002,0.749,2260.109,0,42.2,
1588,1,SBT2050,2,9,,1,5244,4.200112,0.7484,2270.303,0,42,
1588,1,SBT2050,2,9,,1,5293,4.200148,0.7481,2280.485,0,42,
1588,1,SBT2050,2,9,,1,5342,4.20031,0.7471,2290.661,0,42,
1588,1,SBT2050,2,9,,1,5391,4.20004,0.7468,2300.818,0,42.1,
1588,1,SBT2050,2,9,,1,5440,4.19996,0.7465,2310.98,0,42.1,
1588,1,SBT2050,2,9,,1,5489,4.19987,0.7456,2321.131,0,42,
1588,1,SBT2050,2,9,,1,5538,4.20016,0.7442,2331.27,0,42.1,
1588,1,SBT2050,2,9,,1,5587,4.19993,0.7439,2341.395,0,42.1,
1588,1,SBT2050,2,9,,1,5636,4.20005,0.7451,2351.518,0,42.1,
1588,1,SBT2050,2,9,,1,5685,4.19997,0.7433,2361.646,0,42.1,
1588,1,SBT2050,2,9,,1,5734,4.20006,0.7434,2371.767,0,42.1,
1588,1,SBT2050,2,9,,1,5783,4.19995,0.7428,2381.882,0,42.1,
1588,1,SBT2050,2,9,,1,5832,4.19987,0.7415,2391.984,0,42.1,
1588,1,SBT2050,2,9,,1,5881,4.20005,0.7412,2402.073,0,42.1,
1588,1,SBT2050,2,9,,1,5930,4.19985,0.7419,2412.162,0,42.1,
1588,1,SBT2050,2,9,,1,5979,4.20002,0.743,2422.263,0,42.3,
1588,1,SBT2050,2,9,,1,6028,4.20016,0.7431,2432.381,0,42.2,
1588,1,SBT2050,2,9,,1,6077,4.19998,0.7442,2442.505,0,42.2,
1588,1,SBT2050,2,9,,1,6126,4.200136,0.7454,2452.639,0,42.3,
1588,1,SBT2050,2,9,,1,6175,4.19992,0.7463,2462.791,0,42.3,
1588,1,SBT2050,2,9,,1,6224,4.200172,0.7478,2472.96,0,42.3,
1588,1,SBT2050,2,9,,1,6273,4.2,0.7477,2483.147,0,42.4,
1588,1,SBT2050,2,9,,1,6322,4.19999,0.7489,2493.332,0,42.4,
1588,1,SBT2050,2,9,,1,6371,4.19992,0.7487,2503.514,0,42.4,
1588,1,SBT2050,2,9,,1,6420,4.20016,0.7469,2513.699,0,42.5,
1588,1,SBT2050,2,9,,1,6469,4.20003,0.7477,2523.875,0,42.6,
1588,1,SBT2050,2,9,,1,6518,4.200124,0.7489,2534.065,0,42.6,
1588,1,SBT2050,2,9,,1,6567,4.199552,0.7475,2544.241,0,42.6,
1588,1,SBT2050,2,9,,1,6616,4.200172,0.7433,2554.387,0,42.6,
1588,1,SBT2050,2,9,,1,6665,4.20003,0.7437,2564.514,0,42.6,
1588,1,SBT2050,2,9,,1,6714,4.200112,0.7439,2574.645,0,42.6,
1588,1,SBT2050,2,9,,1,6763,4.199838,0.7428,2584.762,0,42.6,
1588,1,SBT2050,2,9,,1,6812,4.19987,0.743,2594.874,0,42.7,
1588,1,SBT2050,2,9,,1,6861,4.19985,0.7431,2604.983,0,42.6,
1588,1,SBT2050,2,9,,1,6910,4.200112,0.7415,2615.079,0,42.7,
1588,1,SBT2050,2,9,,1,6959,4.19999,0.7404,2625.159,0,42.6,
1588,1,SBT2050,2,9,,1,7008,4.19995,0.7381,2635.214,0,42.7,
1588,1,SBT2050,2,9,,1,7057,4.20016,0.7363,2645.243,0,42.7,
1588,1,SBT2050,2,9,,1,7106,4.2001,0.7354,2655.257,0,42.6,
1588,1,SBT2050,2,9,,1,7155,4.19973,0.7331,2665.247,0,42.6,
1588,1,SBT2050,2,9,,1,7204,4.19998,0.7308,2675.208,0,42.6,
1588,1,SBT2050,2,9,,1,7253,4.19989,0.7292,2685.148,0,42.6,
1588,1,SBT2050,2,9,,1,7302,4.2004,0.7267,2695.055,0,42.5,
1588,1,SBT2050,2,9,,1,7351,4.200136,0.7248,2704.936,0,42.5,
1588,1,SBT2050,2,9,,1,7400,4.20005,0.7228,2714.8,0,42.6,
1588,1,SBT2050,2,9,,1,7449,4.20005,0.722,2724.633,0,42.5,
1588,1,SBT2050,2,9,,1,7498,4.19997,0.7193,2734.442,0,42.4,
1588,1,SBT2050,2,9,,1,7547,4.199838,0.716,2744.211,0,42.4,
1588,1,SBT2050,2,9,,1,7596,4.20006,0.7137,2753.945,0,42.4,
1588,1,SBT2050,2,9,,1,7645,4.19991,0.7125,2763.652,0,42.4,
1588,1,SBT2050,2,9,,1,7694,4.200136,0.7101,2773.332,0,42.3,
1588,1,SBT2050,2,9,,1,7743,4.19991,0.7078,2782.98,0,42.3,
1588,1,SBT2050,2,9,,1,7792,4.200172,0.7049,2792.592,0,42.3,
1588,1,SBT2050,2,9,,1,7841,4.200124,0.7011,2802.161,0,42.2,
1588,1,SBT2050,2,9,,1,7890,4.20005,0.6979,2811.687,0,42.1,
1588,1,SBT2050,2,9,,1,7939,4.2001,0.6941,2821.163,0,42.1,
1588,1,SBT2050,2,9,,1,7988,4.200124,0.6911,2830.591,0,42,
1588,1,SBT2050,2,9,,1,8037,4.20009,0.6878,2839.979,0,42,
1588,1,SBT2050,2,9,,1,8086,4.19997,0.6843,2849.316,0,41.9,
1588,1,SBT2050,2,9,,1,8135,4.2,0.6805,2858.604,0,41.8,
1588,1,SBT2050,2,9,,1,8184,4.20027,0.6779,2867.847,0,41.8,
1588,1,SBT2050,2,9,,1,8233,4.20004,0.6746,2877.052,0,41.6,
1588,1,SBT2050,2,9,,1,8282,4.19998,0.6712,2886.212,0,41.7,
1588,1,SBT2050,2,9,,1,8331,4.199862,0.6682,2895.33,0,41.6,
1588,1,SBT2050,2,9,,1,8380,4.20016,0.6645,2904.401,0,41.5,
1588,1,SBT2050,2,9,,1,8429,4.20021,0.6601,2913.419,0,41.4,
1588,1,SBT2050,2,9,,1,8474.68,4.199862,0.657,2921.777,0,,