File: 2C/Test1447.csv
Request Year:,2018,,,,,,,,,,,,
Test:,1447,,,,,,,,,,,,
Test Description:,,,,,,,,,,,,,
TestRegime Name:,Aging_Performance,,,,,,,,,,,,
TestRegime Suffix:,SHP_LC,,,,,,,,,,,,
TestRegime CellSize:,18650,,,,,,,,,,,,
TestRegime Version:,1,,,,,,,,,,,,
Number Of Cells:,1,,,,,,,,,,,,
LotID:,,,,,,,,,,,,,
Lot Description:,,,,,,,,,,,,,
Date Made:,1/21/2003 12:00 AM,,,,,,,,,,,,
Origin:,Other,,,,,,,,,,,,
Requestor:,Admin,,,,,,,,,,,,
Product ID:,Default product,,,,,,,,,,,,
Storage Temp:,R.T./AMB,,,,,,,,,,,,
Storage Delay:,0 days,,,,,,,,,,,,
Test Temp:,R.T./AMB,,,,,,,,,,,,
Start Time:,4/2/2018 9:40 PM,,,,,,,,,,,,
End Time:,4/3/2018 12:50 PM,,,,,,,,,,,,
Operator Instructions:,,,,,,,,,,,,,
Test,Cell,Rack,Shelf,Position,Cell ID,Step,Total Time (Seconds),Voltage (V),Current (A),Charge Capacity (mAh),Discharge Capacity (mAh),TC1 (Â°C),
1447,1,SBT2050,2,9,,0,1,3.40399,0,0,0,25.7,
1447,1,SBT2050,2,9,,1,354,2.73548,-2.9356,0,44.038,27,
1447,1,SBT2050,2,9,,1,707,2.49955,-0.6591,0,201.282,31.1,
1447,1,SBT2050,2,9,,1,1060,2.49986,-0.20034,0,235.446,28.2,
1447,1,SBT2050,2,9,,1,1413,2.49999,-0.13591,0,251.147,26.9,
1447,1,SBT2050,2,9,,1,1766,2.49987,-0.11426,0,263.292,26.4,
1447,1,SBT2050,2,9,,1,2119,2.49999,-0.10121,0,273.813,26.3,
1447,1,SBT2050,2,9,,1,2472,2.50004,-0.09181,0,283.254,26.2,
1447,1,SBT2050,2,9,,1,2825,2.50005,-0.08414,0,291.852,26.1,
1447,1,SBT2050,2,9,,1,3178,2.49991,-0.07774,0,299.781,26.1,
1447,1,SBT2050,2,9,,1,3531,2.49994,-0.072,0,307.124,26,
1447,1,SBT2050,2,9,,1,3884,2.50003,-0.0673,0,313.95,26,
1447,1,SBT2050,2,9,,1,4237,2.49999,-0.06339,0,320.343,26,
1447,1,SBT2050,2,9,,1,4590,2.50003,-0.05986,0,326.384,26,
1447,1,SBT2050,2,9,,1,4943,2.50006,-0.05652,0,332.096,25.9,
1447,1,SBT2050,2,9,,1,5296,2.50004,-0.05347,0,337.495,25.8,
1447,1,SBT2050,2,9,,1,5649,2.49998,-0.05114,0,342.622,25.8,
1447,1,SBT2050,2,9,,1,6002,2.50001,-0.04872,0,347.52,25.8,
1447,1,SBT2050,2,9,,1,6355,2.49993,-0.04662,0,352.202,25.8,
1447,1,SBT2050,2,9,,1,6708,2.50003,-0.044356,0,356.666,25.8,
1447,1,SBT2050,2,9,,1,7061,2.50007,-0.042503,0,360.921,25.7,
1447,1,SBT2050,2,9,,1,7414,2.500134,-0.0406,0,364.987,25.7,
1447,1,SBT2050,2,9,,1,7767,2.49998,-0.03851,0,368.861,25.7,
1447,1,SBT2050,2,9,,1,8120,2.49992,-0.036261,0,372.521,25.7,
1447,1,SBT2050,2,9,,1,8473,2.4999,-0.033869,0,375.962,25.7,
1447,1,SBT2050,2,9,,1,8826,2.50006,-0.031921,0,379.19,25.7,
1447,1,SBT2050,2,9,,1,9179,2.49992,-0.029518,0,382.205,25.7,
1447,1,SBT2050,2,9,,1,9532,2.50004,-0.027657,0,385.005,25.6,
1447,1,SBT2050,2,9,,1,9885,2.49986,-0.025493,0,387.611,25.6,
1447,1,SBT2050,2,9,,1,10238,2.49988,-0.023799,0,390.029,25.6,
1447,1,SBT2050,2,9,,1,10591,2.4999,-0.022152,0,392.278,25.6,
1447,1,SBT2050,2,9,,1,10944,2.5001,-0.020522,0,394.355,25.5,
1447,1,SBT2050,2,9,,1,11297,2.49991,-0.01867,0,396.271,25.5,
1447,1,SBT2050,2,9,,1,11650,2.49998,-0.017266,0,398.037,25.5,
1447,1,SBT2050,2,9,,1,12003,2.50011,-0.016086,0,399.674,25.5,
1447,1,SBT2050,2,9,,1,12356,2.49982,-0.014737,0,401.181,25.5,
1447,1,SBT2050,2,9,,1,12709,2.50009,-0.013663,0,402.572,25.4,
1447,1,SBT2050,2,9,,1,13062,2.50016,-0.0126,0,403.857,25.5,
1447,1,SBT2050,2,9,,1,13415,2.49987,-0.011768,0,405.042,25.4,
1447,1,SBT2050,2,9,,1,13768,2.500134,-0.010936,0,406.143,25.4,
1447,1,SBT2050,2,9,,2,14120,3.74347,2.9362,113.953,406.767,27,
1447,1,SBT2050,2,9,,2,14473,3.83972,2.9357,401.839,406.767,30.5,
1447,1,SBT2050,2,9,,2,14826,3.92672,2.9355,689.725,406.767,31.3,
1447,1,SBT2050,2,9,,2,15179,4.034716,2.9358,977.612,406.767,31.9,
1447,1,SBT2050,2,9,,2,15532,4.145068,2.9365,1265.5,406.767,32.3,
1447,1,SBT2050,2,9,,2,15885,4.14988,1.9561,1503.084,406.767,31.3,
1447,1,SBT2050,2,9,,2,16238,4.15011,1.3557,1662.773,406.767,29.5,
1447,1,SBT2050,2,9,,2,16591,4.15004,1.0021,1777.066,406.767,28.1,
1447,1,SBT2050,2,9,,2,16944,4.15006,0.7698,1863.205,406.767,27.2,
1447,1,SBT2050,2,9,,2,17297,4.150134,0.6089,1930.38,406.767,26.6,
1447,1,SBT2050,2,9,,2,17650,4.14998,0.4926,1984.102,406.767,26.3,
1447,1,SBT2050,2,9,,2,18003,4.150122,0.4054,2027.987,406.767,26.1,
1447,1,SBT2050,2,9,,2,18356,4.1499,0.33939,2064.385,406.767,25.9,
1447,1,SBT2050,2,9,,2,18709,4.15003,0.28897,2095.097,406.767,25.8,
1447,1,SBT2050,2,9,,2,19062,4.15007,0.24818,2121.31,406.767,25.8,
1447,1,SBT2050,2,9,,2,19415,4.15006,0.21586,2143.946,406.767,25.7,
1447,1,SBT2050,2,9,,2,19768,4.15024,0.18841,2163.723,406.767,25.7,
1447,1,SBT2050,2,9,,2,20121,4.14999,0.16593,2181.101,406.767,25.6,
1447,1,SBT2050,2,9,,2,20474,4.15005,0.14818,2196.513,406.767,25.6,
1447,1,SBT2050,2,9,,2,20827,4.1501,0.13244,2210.256,406.767,25.5,
1447,1,SBT2050,2,9,,2,21180,4.149872,0.11923,2222.557,406.767,25.5,
1447,1,SBT2050,2,9,,2,21533,4.14993,0.10782,2233.655,406.767,25.5,
1447,1,SBT2050,2,9,,2,21886,4.150146,0.09806,2243.694,406.767,25.5,
1447,1,SBT2050,2,9,,2,22239,4.15007,0.08834,2252.811,406.767,25.5,
1447,1,SBT2050,2,9,,2,22592,4.1497,0.08062,2261.1,406.767,25.5,
1447,1,SBT2050,2,9,,2,22945,4.14994,0.07367,2268.638,406.767,25.5,
1447,1,SBT2050,2,9,,2,23298,4.150122,0.06744,2275.527,406.767,25.4,
1447,1,SBT2050,2,9,,2,23651,4.15017,0.06173,2281.872,406.767,25.4,
1447,1,SBT2050,2,9,,2,24004,4.14976,0.05741,2287.708,406.767,25.5,
1447,1,SBT2050,2,9,,2,24357,4.15,0.05218,2293.066,406.767,25.4,
1447,1,SBT2050,2,9,,2,24710,4.15006,0.04814,2298.044,406.767,25.4,
1447,1,SBT2050,2,9,,2,25063,4.14998,0.045165,2302.652,406.767,25.4,
1447,1,SBT2050,2,9,,2,25416,4.15004,0.04259,2306.947,406.767,25.4,
1447,1,SBT2050,2,9,,2,25769,4.15001,0.039515,2310.939,406.767,25.5,
1447,1,SBT2050,2,9,,2,26122,4.15003,0.037164,2314.675,406.767,25.4,
1447,1,SBT2050,2,9,,2,26475,4.14999,0.034457,2318.185,406.767,25.4,
1447,1,SBT2050,2,9,,2,26828,4.14993,0.033116,2321.485,406.767,25.4,
1447,1,SBT2050,2,9,,2,27181,4.150122,0.030739,2324.578,406.767,25.4,
1447,1,SBT2050,2,9,,2,27534,4.15007,0.028592,2327.499,406.767,25.4,
1447,1,SBT2050,2,9,,2,27887,4.14997,0.027518,2330.258,406.767,25.4,
1447,1,SBT2050,2,9,,2,28240,4.15001,0.026372,2332.849,406.767,25.4,
1447,1,SBT2050,2,9,,2,28593,4.14998,0.024816,2335.324,406.767,25.4,
1447,1,SBT2050,2,9,,2,28946,4.15009,0.023428,2337.664,406.767,25.4,
1447,1,SBT2050,2,9,,2,29299,4.14979,0.0223,2339.88,406.767,25.4,
1447,1,SBT2050,2,9,,2,29652,4.15009,0.020711,2341.998,406.767,25.4,
1447,1,SBT2050,2,9,,2,30005,4.1501,0.020064,2344.01,406.767,25.4,
1447,1,SBT2050,2,9,,2,30358,4.14999,0.019119,2345.947,406.767,25.4,
1447,1,SBT2050,2,9,,2,30711,4.149824,0.018746,2347.8,406.767,25.4,
1447,1,SBT2050,2,9,,2,31064,4.15009,0.017542,2349.576,406.767,25.4,
1447,1,SBT2050,2,9,,2,31417,4.14999,0.017137,2351.269,406.767,25.4,
1447,1,SBT2050,2,9,,2,31770,4.14999,0.016076,2352.892,406.767,25.4,
1447,1,SBT2050,2,9,,2,32123,4.15005,0.015503,2354.45,406.767,25.4,
1447,1,SBT2050,2,9,,2,32476,4.15,0.0149,2355.958,406.767,25.4,
1447,1,SBT2050,2,9,,2,32829,4.15024,0.014293,2357.399,406.767,25.4,
1447,1,SBT2050,2,9,,2,33182,4.15003,0.013579,2358.782,406.767,25.4,
1447,1,SBT2050,2,9,,2,33535,4.14999,0.01337,2360.118,406.767,25.4,
1447,1,SBT2050,2,9,,2,33888,4.15004,0.013148,2361.426,406.767,25.4,
1447,1,SBT2050,2,9,,2,34241,4.14981,0.012597,2362.677,406.767,25.4,
1447,1,SBT2050,2,9,,2,34594,4.15009,0.012163,2363.881,406.767,25.3,
1447,1,SBT2050,2,9,,2,34947,4.15005,0.012009,2365.058,406.767,25.4,
1447,1,SBT2050,2,9,,2,35300,4.14991,0.011217,2366.189,406.767,25.4,
1447,1,SBT2050,2,9,,2,35653,4.149824,0.011351,2367.279,406.767,25.4,
1447,1,SBT2050,2,9,,2,36006,4.15009,0.010415,2368.344,406.767,25.3,
1447,1,SBT2050,2,9,,3,36358,4.14688,0,2368.7,406.767,25.4,
1447,1,SBT2050,2,9,,3,36711,4.145744,0,2368.7,406.767,25.4,
1447,1,SBT2050,2,9,,3,37064,4.145126,0,2368.7,406.767,25.4,
1447,1,SBT2050,2,9,,3,37417,4.14423,0,2368.7,406.767,25.4,
1447,1,SBT2050,2,9,,3,37770,4.14364,0,2368.7,406.767,25.4,
1447,1,SBT2050,2,9,,4,38122,3.69361,-2.9358,2368.7,566.521,28.2,
1447,1,SBT2050,2,9,,4,38475,3.60004,-2.9364,2368.7,854.407,30.1,
1447,1,SBT2050,2,9,,4,38828,3.473564,-2.9357,2368.7,1142.294,30.6,
1447,1,SBT2050,2,9,,4,39181,3.33849,-2.936,2368.7,1430.18,31,
1447,1,SBT2050,2,9,,4,39534,3.20518,-2.9362,2368.7,1718.066,31.7,
1447,1,SBT2050,2,9,,4,39887,3.036783,-2.936,2368.7,2005.951,32.9,
1447,1,SBT2050,2,9,,4,40240,2.74531,-2.9356,2368.7,2293.838,35.2,
1447,1,SBT2050,2,9,,4,40593,2.49975,-0.9021,2368.7,2498.004,35.6,
1447,1,SBT2050,2,9,,4,40946,2.49999,-0.27043,2368.7,2541.477,30.1,
1447,1,SBT2050,2,9,,4,41299,2.499978,-0.21579,2368.7,2564.851,27.8,
1447,1,SBT2050,2,9,,4,41652,2.50003,-0.1886,2368.7,2584.569,27.1,
1447,1,SBT2050,2,9,,4,42005,2.5001,-0.16817,2368.7,2602.012,26.7,
1447,1,SBT2050,2,9,,4,42358,2.5001,-0.15173,2368.7,2617.659,26.6,
1447,1,SBT2050,2,9,,4,42711,2.49992,-0.13778,2368.7,2631.841,26.5,
1447,1,SBT2050,2,9,,4,43064,2.49983,-0.12537,2368.7,2644.733,26.4,
1447,1,SBT2050,2,9,,4,43417,2.49994,-0.11414,2368.7,2656.464,26.3,
1447,1,SBT2050,2,9,,4,43770,2.49999,-0.10369,2368.7,2667.139,26.2,
1447,1,SBT2050,2,9,,4,44123,2.499978,-0.09412,2368.7,2676.841,26.1,
1447,1,SBT2050,2,9,,4,44476,2.5,-0.08571,2368.7,2685.642,26.1,
1447,1,SBT2050,2,9,,4,44829,2.49975,-0.07751,2368.7,2693.636,26,
1447,1,SBT2050,2,9,,4,45182,2.49993,-0.07103,2368.7,2700.916,26,
1447,1,SBT2050,2,9,,4,45535,2.50004,-0.06506,2368.7,2707.59,25.9,
1447,1,SBT2050,2,9,,4,45888,2.49999,-0.05942,2368.7,2713.687,25.9,
1447,1,SBT2050,2,9,,4,46241,2.50009,-0.05497,2368.7,2719.291,25.8,
1447,1,SBT2050,2,9,,4,46594,2.49993,-0.05067,2368.7,2724.474,25.8,
1447,1,SBT2050,2,9,,4,46947,2.49999,-0.046929,2368.7,2729.257,25.8,
1447,1,SBT2050,2,9,,4,47300,2.499978,-0.043215,2368.7,2733.679,25.7,
1447,1,SBT2050,2,9,,4,47653,2.49993,-0.039777,2368.7,2737.75,25.7,
1447,1,SBT2050,2,9,,4,48006,2.50009,-0.036718,2368.7,2741.505,25.7,
1447,1,SBT2050,2,9,,4,48359,2.499954,-0.033398,2368.7,2744.946,25.7,
1447,1,SBT2050,2,9,,4,48712,2.49993,-0.030576,2368.7,2748.088,25.6,
1447,1,SBT2050,2,9,,4,49065,2.50014,-0.028016,2368.7,2750.955,24.6,
1447,1,SBT2050,2,9,,4,49418,2.50006,-0.025307,2368.7,2753.559,24.4,
1447,1,SBT2050,2,9,,4,49771,2.49993,-0.022854,2368.7,2755.923,24.8,
1447,1,SBT2050,2,9,,4,50124,2.49993,-0.020772,2368.7,2758.072,25.1,
1447,1,SBT2050,2,9,,4,50477,2.500133,-0.018997,2368.7,2760.027,25.2,
1447,1,SBT2050,2,9,,4,50830,2.50004,-0.017085,2368.7,2761.799,25.3,
1447,1,SBT2050,2,9,,4,51183,2.50004,-0.015304,2368.7,2763.39,25.4,
1447,1,SBT2050,2,9,,4,51536,2.50006,-0.013934,2368.7,2764.829,25.4,
1447,1,SBT2050,2,9,,4,51889,2.499978,-0.012676,2368.7,2766.139,25.4,
1447,1,SBT2050,2,9,,4,52242,2.49988,-0.011677,2368.7,2767.338,25.5,
1447,1,SBT2050,2,9,,4,52595,2.499978,-0.010569,2368.7,2768.433,25.5,
1447,1,SBT2050,2,9,,5,52947,2.61161,0,2368.7,2768.969,25.2,
1447,1,SBT2050,2,9,,5,53300,2.72884,0,2368.7,2768.969,24.3,
1447,1,SBT2050,2,9,,5,53653,2.78363,0,2368.7,2768.969,24.6,
1447,1,SBT2050,2,9,,5,54006,2.81295,0,2368.7,2768.969,24.8,
1447,1,SBT2050,2,9,,5,54359,2.83235,0,2368.7,2768.969,25,
1447,1,SBT2050,2,9,,5,54579.99,2.84193,-9.9E-05,2368.7,2768.969,,