File: 2C/Test1537.csv
Request Year:,2018,,,,,,,,,,,,
Test:,1537,,,,,,,,,,,,
Test Description:,,,,,,,,,,,,,
TestRegime Name:,Aging_Performance,,,,,,,,,,,,
TestRegime Suffix:,SHP_LC,,,,,,,,,,,,
TestRegime CellSize:,18650,,,,,,,,,,,,
TestRegime Version:,1,,,,,,,,,,,,
Number Of Cells:,1,,,,,,,,,,,,
LotID:,,,,,,,,,,,,,
Lot Description:,,,,,,,,,,,,,
Date Made:,1/21/2003 12:00 AM,,,,,,,,,,,,
Origin:,Other,,,,,,,,,,,,
Requestor:,Admin,,,,,,,,,,,,
Product ID:,Default product,,,,,,,,,,,,
Storage Temp:,R.T./AMB,,,,,,,,,,,,
Storage Delay:,0 days,,,,,,,,,,,,
Test Temp:,R.T./AMB,,,,,,,,,,,,
Start Time:,4/22/2018 9:12 AM,,,,,,,,,,,,
End Time:,4/22/2018 7:26 PM,,,,,,,,,,,,
Operator Instructions:,,,,,,,,,,,,,
Test,Cell,Rack,Shelf,Position,Cell ID,Step,Total Time (Seconds),Voltage (V),Current (A),Charge Capacity (mAh),Discharge Capacity (mAh),TC1 (Â°C),
1537,1,SBT2050,2,9,,0,1,3.46637,0,0,0,24.7,
1537,1,SBT2050,2,9,,0,225,3.46896,0,0,0,24.9,
1537,1,SBT2050,2,9,,1,449,2.49959,-2.1972,0,117.253,30.2,
1537,1,SBT2050,2,9,,1,673,2.49985,-0.7865,0,198.756,31.1,
1537,1,SBT2050,2,9,,1,897,2.49987,-0.40833,0,233.895,29.2,
1537,1,SBT2050,2,9,,1,1121,2.49986,-0.25834,0,254.024,27.7,
1537,1,SBT2050,2,9,,1,1345,2.49991,-0.18408,0,267.571,26.7,
1537,1,SBT2050,2,9,,1,1569,2.49987,-0.14088,0,277.569,26.2,
1537,1,SBT2050,2,9,,1,1793,2.49996,-0.11454,0,285.451,25.9,
1537,1,SBT2050,2,9,,1,2017,2.50012,-0.09801,0,292.027,25.6,
1537,1,SBT2050,2,9,,1,2241,2.49997,-0.08664,0,297.744,25.5,
1537,1,SBT2050,2,9,,1,2465,2.49996,-0.07867,0,302.868,25.4,
1537,1,SBT2050,2,9,,1,2689,2.50023,-0.0735,0,307.592,25.4,
1537,1,SBT2050,2,9,,1,2913,2.49998,-0.0693,0,312.027,25.2,
1537,1,SBT2050,2,9,,1,3137,2.49996,-0.06586,0,316.231,25.1,
1537,1,SBT2050,2,9,,1,3361,2.49998,-0.06295,0,320.238,25.1,
1537,1,SBT2050,2,9,,1,3585,2.49997,-0.06043,0,324.075,25.2,
1537,1,SBT2050,2,9,,1,3809,2.50014,-0.05826,0,327.763,25.3,
1537,1,SBT2050,2,9,,1,4033,2.49983,-0.05609,0,331.32,25.3,
1537,1,SBT2050,2,9,,1,4257,2.499933,-0.05455,0,334.767,25.3,
1537,1,SBT2050,2,9,,1,4481,2.50008,-0.05301,0,338.111,25.3,
1537,1,SBT2050,2,9,,1,4705,2.499933,-0.05147,0,341.363,25.4,
1537,1,SBT2050,2,9,,1,4929,2.50005,-0.05044,0,344.534,25.4,
1537,1,SBT2050,2,9,,1,5153,2.50015,-0.04943,0,347.633,25.4,
1537,1,SBT2050,2,9,,1,5377,2.500088,-0.04825,0,350.666,25.4,
1537,1,SBT2050,2,9,,1,5601,2.50005,-0.047339,0,353.641,25.4,
1537,1,SBT2050,2,9,,1,5825,2.50005,-0.046476,0,356.562,25.4,
1537,1,SBT2050,2,9,,1,6049,2.499933,-0.045661,0,359.43,25.4,
1537,1,SBT2050,2,9,,1,6273,2.499933,-0.044881,0,362.249,25.5,
1537,1,SBT2050,2,9,,1,6497,2.50002,-0.044247,0,365.022,25.5,
1537,1,SBT2050,2,9,,1,6721,2.49999,-0.043483,0,367.752,25.4,
1537,1,SBT2050,2,9,,1,6945,2.49986,-0.04289,0,370.441,25.5,
1537,1,SBT2050,2,9,,1,7169,2.49997,-0.042289,0,373.092,25.4,
1537,1,SBT2050,2,9,,1,7393,2.50002,-0.041799,0,375.708,25.4,
1537,1,SBT2050,2,9,,1,7617,2.50003,-0.041229,0,378.29,25.5,
1537,1,SBT2050,2,9,,1,7841,2.49998,-0.04065,0,380.838,25.5,
1537,1,SBT2050,2,9,,1,8065,2.500088,-0.040295,0,383.355,25.5,
1537,1,SBT2050,2,9,,1,8289,2.49984,-0.039639,0,385.842,25.5,
1537,1,SBT2050,2,9,,1,8513,2.50006,-0.039271,0,388.299,25.5,
1537,1,SBT2050,2,9,,1,8737,2.49983,-0.038854,0,390.729,25.5,
1537,1,SBT2050,2,9,,1,8961,2.50004,-0.038397,0,393.133,25.5,
1537,1,SBT2050,2,9,,1,9185,2.499933,-0.037987,0,395.512,25.5,
1537,1,SBT2050,2,9,,1,9409,2.499921,-0.037606,0,397.865,25.5,
1537,1,SBT2050,2,9,,1,9633,2.49996,-0.037123,0,400.193,25.5,
1537,1,SBT2050,2,9,,1,9857,2.49997,-0.036772,0,402.493,25.5,
1537,1,SBT2050,2,9,,1,10081,2.49997,-0.036403,0,404.768,25.5,
1537,1,SBT2050,2,9,,1,10305,2.49983,-0.035847,0,407.016,25.5,
1537,1,SBT2050,2,9,,1,10529,2.500112,-0.035465,0,409.236,25.5,
1537,1,SBT2050,2,9,,1,10753,2.49996,-0.03498,0,411.429,25.5,
1537,1,SBT2050,2,9,,1,10977,2.49999,-0.034595,0,413.594,25.6,
1537,1,SBT2050,2,9,,1,11201,2.49984,-0.034177,0,415.733,25.5,
1537,1,SBT2050,2,9,,1,11425,2.49996,-0.033755,0,417.845,25.5,
1537,1,SBT2050,2,9,,1,11649,2.50021,-0.033333,0,419.928,25.5,
1537,1,SBT2050,2,9,,1,11873,2.5,-0.03272,0,421.981,25.5,
1537,1,SBT2050,2,9,,1,12097,2.49997,-0.032187,0,424,25.5,
1537,1,SBT2050,2,9,,1,12321,2.500267,-0.031826,0,425.985,25.5,
1537,1,SBT2050,2,9,,1,12545,2.499921,-0.031172,0,427.94,25.5,
1537,1,SBT2050,2,9,,1,12769,2.49985,-0.030767,0,429.87,25.5,
1537,1,SBT2050,2,9,,1,12993,2.50016,-0.030617,0,431.779,25.5,
1537,1,SBT2050,2,9,,1,13217,2.50015,-0.030245,0,433.668,25.5,
1537,1,SBT2050,2,9,,1,13441,2.500088,-0.02988,0,435.538,25.5,
1537,1,SBT2050,2,9,,1,13665,2.499933,-0.02959,0,437.389,25.5,
1537,1,SBT2050,2,9,,1,13889,2.49996,-0.029278,0,439.22,25.5,
1537,1,SBT2050,2,9,,1,14113,2.50008,-0.028938,0,441.032,25.5,
1537,1,SBT2050,2,9,,1,14337,2.49996,-0.0286,0,442.824,25.5,
1537,1,SBT2050,2,9,,1,14561,2.499921,-0.028327,0,444.596,25.5,
1537,1,SBT2050,2,9,,1,14785,2.499921,-0.027941,0,446.347,25.5,
1537,1,SBT2050,2,9,,1,15009,2.49967,-0.027493,0,448.078,25.5,
1537,1,SBT2050,2,9,,1,15233,2.50014,-0.027402,0,449.788,25.5,
1537,1,SBT2050,2,9,,1,15457,2.49984,-0.026855,0,451.478,25.5,
1537,1,SBT2050,2,9,,1,15681,2.499921,-0.026696,0,453.146,25.5,
1537,1,SBT2050,2,9,,1,15905,2.499921,-0.026384,0,454.793,25.5,
1537,1,SBT2050,2,9,,1,16129,2.49991,-0.025939,0,456.42,25.5,
1537,1,SBT2050,2,9,,1,16353,2.50002,-0.025662,0,458.027,25.5,
1537,1,SBT2050,2,9,,1,16577,2.49979,-0.025218,0,459.615,25.5,
1537,1,SBT2050,2,9,,1,16801,2.499933,-0.025069,0,461.182,25.5,
1537,1,SBT2050,2,9,,1,17025,2.49981,-0.024577,0,462.729,25.5,
1537,1,SBT2050,2,9,,1,17249,2.499921,-0.024427,0,464.257,25.5,
1537,1,SBT2050,2,9,,1,17473,2.49997,-0.023984,0,465.764,25.5,
1537,1,SBT2050,2,9,,1,17697,2.49996,-0.02388,0,467.252,25.5,
1537,1,SBT2050,2,9,,1,17921,2.4999,-0.023482,0,468.722,25.5,
1537,1,SBT2050,2,9,,1,18145,2.50006,-0.023132,0,470.172,25.5,
1537,1,SBT2050,2,9,,1,18369,2.49985,-0.022768,0,471.604,25.5,
1537,1,SBT2050,2,9,,1,18593,2.49991,-0.022458,0,473.016,25.5,
1537,1,SBT2050,2,9,,1,18817,2.49985,-0.022202,0,474.409,25.5,
1537,1,SBT2050,2,9,,1,19041,2.5002,-0.02198,0,475.783,25.4,
1537,1,SBT2050,2,9,,1,19265,2.50012,-0.021803,0,477.139,25.5,
1537,1,SBT2050,2,9,,1,19489,2.49985,-0.021276,0,478.476,25.5,
1537,1,SBT2050,2,9,,1,19713,2.50017,-0.021213,0,479.796,25.5,
1537,1,SBT2050,2,9,,1,19937,2.49987,-0.020907,0,481.099,25.4,
1537,1,SBT2050,2,9,,1,20161,2.50018,-0.020579,0,482.385,24.9,
1537,1,SBT2050,2,9,,1,20385,2.50003,-0.020334,0,483.655,24.7,
1537,1,SBT2050,2,9,,1,20609,2.5,-0.020081,0,484.908,24.7,
1537,1,SBT2050,2,9,,1,20833,2.50005,-0.019836,0,486.145,24.7,
1537,1,SBT2050,2,9,,1,21057,2.49991,-0.019466,0,487.365,24.8,
1537,1,SBT2050,2,9,,1,21281,2.50017,-0.019379,0,488.571,24.9,
1537,1,SBT2050,2,9,,1,21505,2.499921,-0.018987,0,489.762,24.9,
1537,1,SBT2050,2,9,,1,21729,2.49991,-0.018891,0,490.939,24.9,
1537,1,SBT2050,2,9,,1,21953,2.50006,-0.018539,0,492.102,24.9,
1537,1,SBT2050,2,9,,1,22177,2.49998,-0.018292,0,493.251,24.9,
1537,1,SBT2050,2,9,,1,22401,2.5,-0.018135,0,494.387,24.8,
1537,1,SBT2050,2,9,,1,22625,2.50004,-0.018056,0,495.509,24.9,
1537,1,SBT2050,2,9,,1,22849,2.50017,-0.017747,0,496.617,25,
1537,1,SBT2050,2,9,,1,23073,2.499921,-0.017466,0,497.713,25.1,
1537,1,SBT2050,2,9,,1,23297,2.500088,-0.017331,0,498.797,25.2,
1537,1,SBT2050,2,9,,1,23521,2.5001,-0.01723,0,499.869,25.1,
1537,1,SBT2050,2,9,,1,23745,2.500088,-0.016901,0,500.929,25.1,
1537,1,SBT2050,2,9,,1,23969,2.50008,-0.016732,0,501.977,25.1,
1537,1,SBT2050,2,9,,1,24193,2.49998,-0.016546,0,503.013,25.1,
1537,1,SBT2050,2,9,,1,24417,2.499933,-0.016331,0,504.038,25.1,
1537,1,SBT2050,2,9,,1,24641,2.50014,-0.01615,0,505.051,25.1,
1537,1,SBT2050,2,9,,1,24865,2.5,-0.01602,0,506.054,25,
1537,1,SBT2050,2,9,,1,25089,2.50005,-0.01584,0,507.045,25.1,
1537,1,SBT2050,2,9,,1,25313,2.499921,-0.015644,0,508.025,25,
1537,1,SBT2050,2,9,,1,25537,2.49999,-0.015548,0,508.994,25,
1537,1,SBT2050,2,9,,1,25761,2.499945,-0.015484,0,509.952,25,
1537,1,SBT2050,2,9,,1,25985,2.50006,-0.015145,0,510.9,25.1,
1537,1,SBT2050,2,9,,1,26209,2.50005,-0.0149,0,511.837,25,
1537,1,SBT2050,2,9,,1,26433,2.50008,-0.014775,0,512.764,25,
1537,1,SBT2050,2,9,,1,26657,2.50005,-0.014783,0,513.68,25.1,
1537,1,SBT2050,2,9,,1,26881,2.50014,-0.014566,0,514.586,25,
1537,1,SBT2050,2,9,,1,27105,2.50004,-0.014263,0,515.482,25,
1537,1,SBT2050,2,9,,1,27329,2.5,-0.014095,0,516.368,25,
1537,1,SBT2050,2,9,,1,27553,2.500088,-0.014066,0,517.244,25,
1537,1,SBT2050,2,9,,1,27777,2.50002,-0.013812,0,518.111,25.1,
1537,1,SBT2050,2,9,,1,28001,2.50008,-0.013631,0,518.968,25,
1537,1,SBT2050,2,9,,1,28225,2.500112,-0.013574,0,519.816,25.1,
1537,1,SBT2050,2,9,,1,28449,2.49999,-0.013413,0,520.655,25.1,
1537,1,SBT2050,2,9,,1,28673,2.49999,-0.013262,0,521.485,25.1,
1537,1,SBT2050,2,9,,1,28897,2.49999,-0.013062,0,522.306,25.1,
1537,1,SBT2050,2,9,,1,29121,2.50003,-0.012949,0,523.117,25,
1537,1,SBT2050,2,9,,1,29345,2.50008,-0.012882,0,523.92,25,
1537,1,SBT2050,2,9,,1,29569,2.50004,-0.012739,0,524.715,25.1,
1537,1,SBT2050,2,9,,1,29793,2.49998,-0.01257,0,525.501,25,
1537,1,SBT2050,2,9,,1,30017,2.500088,-0.012372,0,526.278,25,
1537,1,SBT2050,2,9,,1,30241,2.50008,-0.012288,0,527.047,25,
1537,1,SBT2050,2,9,,1,30465,2.500088,-0.012188,0,527.807,25,
1537,1,SBT2050,2,9,,1,30689,2.500088,-0.012092,0,528.56,25,
1537,1,SBT2050,2,9,,1,30913,2.50003,-0.011971,0,529.305,25,
1537,1,SBT2050,2,9,,1,31137,2.49999,-0.011831,0,530.043,25,
1537,1,SBT2050,2,9,,1,31361,2.50004,-0.011747,0,530.773,25,
1537,1,SBT2050,2,9,,1,31585,2.50002,-0.011525,0,531.495,25,
1537,1,SBT2050,2,9,,1,31809,2.50008,-0.011444,0,532.209,25,
1537,1,SBT2050,2,9,,1,32033,2.49998,-0.011378,0,532.916,25,
1537,1,SBT2050,2,9,,1,32257,2.49991,-0.011167,0,533.616,25,
1537,1,SBT2050,2,9,,1,32481,2.49991,-0.011037,0,534.308,25,
1537,1,SBT2050,2,9,,1,32705,2.50008,-0.011054,0,534.994,25,
1537,1,SBT2050,2,9,,1,32929,2.4999,-0.010746,0,535.672,25,
1537,1,SBT2050,2,9,,1,33153,2.5,-0.010627,0,536.344,25,
1537,1,SBT2050,2,9,,1,33377,2.500088,-0.010691,0,537.009,25,
1537,1,SBT2050,2,9,,1,33601,2.50004,-0.010595,0,537.668,25,
1537,1,SBT2050,2,9,,1,33825,2.50004,-0.010458,0,538.32,25,
1537,1,SBT2050,2,9,,1,34049,2.4999,-0.010309,0,538.967,25,
1537,1,SBT2050,2,9,,1,34273,2.50005,-0.010292,0,539.607,25,
1537,1,SBT2050,2,9,,2,34496,3.8783,2.9361,72.889,539.986,26.4,
1537,1,SBT2050,2,9,,2,34720,3.9907,2.9358,255.57,539.986,30.6,
1537,1,SBT2050,2,9,,2,34944,4.04354,2.9362,438.252,539.986,32.3,
1537,1,SBT2050,2,9,,2,35168,4.12338,2.9356,620.934,539.986,33,
1537,1,SBT2050,2,9,,2,35392,4.15004,2.3979,791.186,539.986,32.9,
1537,1,SBT2050,2,9,,2,35616,4.14999,1.809,920.87,539.986,31.8,
1537,1,SBT2050,2,9,,2,35840,4.149966,1.5231,1022.481,539.986,31,
1537,1,SBT2050,2,9,,2,36064,4.149668,1.63,1118.623,539.986,33.2,
1537,1,SBT2050,2,9,,2,36288,4.149954,2.0331,1231.736,539.986,39.7,
1537,1,SBT2050,2,9,,2,36512,4.149954,2.4197,1371.034,539.986,49.2,
1537,1,SBT2050,2,9,,2,36736,4.15017,2.5669,1527.662,539.986,58,
1537,1,SBT2050,2,9,,2,36800.002,4.15,-2.5564,1573.24,539.986,60.1,