File: ORRG/Test1582.csv
Request Year:,2018,,,,,,,,,,,,
Test:,1582,,,,,,,,,,,,
Test Description:,,,,,,,,,,,,,
TestRegime Name:,Dchg_1C,,,,,,,,,,,,
TestRegime Suffix:,SHP_LC,,,,,,,,,,,,
TestRegime CellSize:,18650,,,,,,,,,,,,
TestRegime Version:,1,,,,,,,,,,,,
Number Of Cells:,1,,,,,,,,,,,,
LotID:,,,,,,,,,,,,,
Lot Description:,,,,,,,,,,,,,
Date Made:,1/21/2003 12:00 AM,,,,,,,,,,,,
Origin:,Other,,,,,,,,,,,,
Requestor:,Admin,,,,,,,,,,,,
Product ID:,Default product,,,,,,,,,,,,
Storage Temp:,R.T./AMB,,,,,,,,,,,,
Storage Delay:,0 days,,,,,,,,,,,,
Test Temp:,R.T./AMB,,,,,,,,,,,,
Start Time:,4/28/2018 2:12 PM,,,,,,,,,,,,
End Time:,4/28/2018 2:58 PM,,,,,,,,,,,,
Operator Instructions:,,,,,,,,,,,,,
Test,Cell,Rack,Shelf,Position,Cell ID,Step,Total Time (Seconds),Voltage (V),Current (A),Charge Capacity (mAh),Discharge Capacity (mAh),TC1 (Â°C),
1582,1,SBT2050,2,3,,0,1,4.01384,0,0,0,28.6,
1582,1,SBT2050,2,3,,0,18,4.01357,0,0,0,28.6,
1582,1,SBT2050,2,3,,0,35,4.01335,0,0,0,28.5,
1582,1,SBT2050,2,3,,0,52,4.01345,0,0,0,28.5,
1582,1,SBT2050,2,3,,1,69,3.81405,-2.6999,0,6.749,28.5,
1582,1,SBT2050,2,3,,1,86,3.78299,-2.6998,0,19.498,28.6,
1582,1,SBT2050,2,3,,1,103,3.76611,-2.6997,0,32.248,28.7,
1582,1,SBT2050,2,3,,1,120,3.753716,-2.6997,0,44.998,28.7,
1582,1,SBT2050,2,3,,1,137,3.74364,-2.7,0,57.747,28.8,
1582,1,SBT2050,2,3,,1,154,3.73511,-2.6998,0,70.497,28.8,
1582,1,SBT2050,2,3,,1,171,3.72784,-2.7001,0,83.247,28.9,
1582,1,SBT2050,2,3,,1,188,3.72089,-2.7,0,95.996,28.9,
1582,1,SBT2050,2,3,,1,205,3.7146,-2.6996,0,108.746,29,
1582,1,SBT2050,2,3,,1,222,3.70869,-2.7003,0,121.496,29,
1582,1,SBT2050,2,3,,1,239,3.70306,-2.6998,0,134.246,29,
1582,1,SBT2050,2,3,,1,256,3.69725,-2.6997,0,146.995,29,
1582,1,SBT2050,2,3,,1,273,3.69188,-2.7004,0,159.745,29.1,
1582,1,SBT2050,2,3,,1,290,3.68694,-2.7,0,172.495,29,
1582,1,SBT2050,2,3,,1,307,3.6814,-2.7005,0,185.245,29.1,
1582,1,SBT2050,2,3,,1,324,3.67652,-2.7003,0,197.995,29.1,
1582,1,SBT2050,2,3,,1,341,3.67157,-2.7,0,210.744,29.1,
1582,1,SBT2050,2,3,,1,358,3.66672,-2.7002,0,223.494,29.1,
1582,1,SBT2050,2,3,,1,375,3.66195,-2.7,0,236.244,29.1,
1582,1,SBT2050,2,3,,1,392,3.65731,-2.6997,0,248.994,29.1,
1582,1,SBT2050,2,3,,1,409,3.65276,-2.7001,0,261.743,29.1,
1582,1,SBT2050,2,3,,1,426,3.647828,-2.7,0,274.493,29.1,
1582,1,SBT2050,2,3,,1,443,3.643384,-2.6998,0,287.243,29.1,
1582,1,SBT2050,2,3,,1,460,3.63879,-2.7,0,299.992,29.1,
1582,1,SBT2050,2,3,,1,477,3.63406,-2.7002,0,312.742,29.1,
1582,1,SBT2050,2,3,,1,494,3.62936,-2.6998,0,325.492,29.1,
1582,1,SBT2050,2,3,,1,511,3.62485,-2.6999,0,338.242,29.1,
1582,1,SBT2050,2,3,,1,528,3.62034,-2.7,0,350.992,29.2,
1582,1,SBT2050,2,3,,1,545,3.61577,-2.7001,0,363.741,29.2,
1582,1,SBT2050,2,3,,1,562,3.61114,-2.7001,0,376.491,29.1,
1582,1,SBT2050,2,3,,1,579,3.6065,-2.6999,0,389.241,29.2,
1582,1,SBT2050,2,3,,1,596,3.60175,-2.6998,0,401.991,29.2,
1582,1,SBT2050,2,3,,1,613,3.59727,-2.7001,0,414.74,29.2,
1582,1,SBT2050,2,3,,1,630,3.59293,-2.7002,0,427.49,29.2,
1582,1,SBT2050,2,3,,1,647,3.5883,-2.6998,0,440.24,29.2,
1582,1,SBT2050,2,3,,1,664,3.58378,-2.7,0,452.99,29.2,
1582,1,SBT2050,2,3,,1,681,3.57878,-2.6997,0,465.739,29.2,
1582,1,SBT2050,2,3,,1,698,3.57456,-2.6999,0,478.489,29.2,
1582,1,SBT2050,2,3,,1,715,3.56982,-2.6999,0,491.239,29.2,
1582,1,SBT2050,2,3,,1,732,3.56495,-2.7002,0,503.989,29.2,
1582,1,SBT2050,2,3,,1,749,3.56031,-2.7003,0,516.739,29.2,
1582,1,SBT2050,2,3,,1,766,3.55566,-2.6999,0,529.488,29.2,
1582,1,SBT2050,2,3,,1,783,3.551084,-2.6995,0,542.238,29.2,
1582,1,SBT2050,2,3,,1,800,3.54631,-2.7,0,554.988,29.2,
1582,1,SBT2050,2,3,,1,817,3.54147,-2.7002,0,567.738,29.2,
1582,1,SBT2050,2,3,,1,834,3.53661,-2.7002,0,580.487,29.2,
1582,1,SBT2050,2,3,,1,851,3.532,-2.6997,0,593.237,29.2,
1582,1,SBT2050,2,3,,1,868,3.52708,-2.7002,0,605.987,29.2,
1582,1,SBT2050,2,3,,1,885,3.5226,-2.7003,0,618.737,29.2,
1582,1,SBT2050,2,3,,1,902,3.51767,-2.7,0,631.487,29.2,
1582,1,SBT2050,2,3,,1,919,3.51293,-2.7001,0,644.236,29.2,
1582,1,SBT2050,2,3,,1,936,3.5078,-2.7001,0,656.986,29.2,
1582,1,SBT2050,2,3,,1,953,3.50295,-2.6999,0,669.736,29.2,
1582,1,SBT2050,2,3,,1,970,3.49845,-2.7,0,682.485,29.2,
1582,1,SBT2050,2,3,,1,987,3.49359,-2.6999,0,695.235,29.2,
1582,1,SBT2050,2,3,,1,1004,3.4889,-2.6998,0,707.985,29.2,
1582,1,SBT2050,2,3,,1,1021,3.48434,-2.6998,0,720.735,29.2,
1582,1,SBT2050,2,3,,1,1038,3.47919,-2.6998,0,733.485,29.3,
1582,1,SBT2050,2,3,,1,1055,3.47485,-2.6998,0,746.234,29.2,
1582,1,SBT2050,2,3,,1,1072,3.46984,-2.6994,0,758.984,29.3,
1582,1,SBT2050,2,3,,1,1089,3.465106,-2.7002,0,771.734,29.3,
1582,1,SBT2050,2,3,,1,1106,3.4605,-2.6995,0,784.484,29.3,
1582,1,SBT2050,2,3,,1,1123,3.45535,-2.6995,0,797.233,29.2,
1582,1,SBT2050,2,3,,1,1140,3.45072,-2.7002,0,809.983,29.2,
1582,1,SBT2050,2,3,,1,1157,3.44603,-2.7002,0,822.733,29.3,
1582,1,SBT2050,2,3,,1,1174,3.44109,-2.7002,0,835.483,29.2,
1582,1,SBT2050,2,3,,1,1191,3.43665,-2.7001,0,848.233,29.2,
1582,1,SBT2050,2,3,,1,1208,3.431748,-2.6997,0,860.982,29.2,
1582,1,SBT2050,2,3,,1,1225,3.4271,-2.6995,0,873.732,29.3,
1582,1,SBT2050,2,3,,1,1242,3.42277,-2.6997,0,886.482,29.3,
1582,1,SBT2050,2,3,,1,1259,3.4181,-2.7002,0,899.232,29.3,
1582,1,SBT2050,2,3,,1,1276,3.41319,-2.6997,0,911.982,29.3,
1582,1,SBT2050,2,3,,1,1293,3.40837,-2.6995,0,924.731,29.3,
1582,1,SBT2050,2,3,,1,1310,3.40393,-2.7,0,937.481,29.3,
1582,1,SBT2050,2,3,,1,1327,3.39907,-2.7003,0,950.231,29.3,
1582,1,SBT2050,2,3,,1,1344,3.3944,-2.7,0,962.981,29.3,
1582,1,SBT2050,2,3,,1,1361,3.38977,-2.7,0,975.73,29.3,
1582,1,SBT2050,2,3,,1,1378,3.38488,-2.6997,0,988.48,29.3,
1582,1,SBT2050,2,3,,1,1395,3.38032,-2.6998,0,1001.23,29.3,
1582,1,SBT2050,2,3,,1,1412,3.3756,-2.7001,0,1013.98,29.3,
1582,1,SBT2050,2,3,,1,1429,3.37105,-2.7001,0,1026.73,29.3,
1582,1,SBT2050,2,3,,1,1446,3.36624,-2.6996,0,1039.479,29.3,
1582,1,SBT2050,2,3,,1,1463,3.36151,-2.6999,0,1052.229,29.3,
1582,1,SBT2050,2,3,,1,1480,3.35677,-2.7002,0,1064.979,29.3,
1582,1,SBT2050,2,3,,1,1497,3.352034,-2.7,0,1077.729,29.3,
1582,1,SBT2050,2,3,,1,1514,3.34755,-2.7002,0,1090.479,29.4,
1582,1,SBT2050,2,3,,1,1531,3.34276,-2.7002,0,1103.228,29.4,
1582,1,SBT2050,2,3,,1,1548,3.3379,-2.7002,0,1115.978,29.4,
1582,1,SBT2050,2,3,,1,1565,3.33307,-2.6996,0,1128.728,29.4,
1582,1,SBT2050,2,3,,1,1582,3.32801,-2.7001,0,1141.478,29.4,
1582,1,SBT2050,2,3,,1,1599,3.32316,-2.7,0,1154.228,29.5,
1582,1,SBT2050,2,3,,1,1616,3.31847,-2.6997,0,1166.977,29.5,
1582,1,SBT2050,2,3,,1,1633,3.31331,-2.7001,0,1179.727,29.4,
1582,1,SBT2050,2,3,,1,1650,3.30847,-2.6999,0,1192.477,29.5,
1582,1,SBT2050,2,3,,1,1667,3.30318,-2.7002,0,1205.227,29.5,
1582,1,SBT2050,2,3,,1,1684,3.298411,-2.6999,0,1217.977,29.5,
1582,1,SBT2050,2,3,,1,1701,3.293245,-2.6999,0,1230.727,29.5,
1582,1,SBT2050,2,3,,1,1718,3.28818,-2.7,0,1243.476,29.6,
1582,1,SBT2050,2,3,,1,1735,3.28279,-2.6997,0,1256.226,29.6,
1582,1,SBT2050,2,3,,1,1752,3.27764,-2.7,0,1268.976,29.6,
1582,1,SBT2050,2,3,,1,1769,3.27245,-2.7003,0,1281.726,29.7,
1582,1,SBT2050,2,3,,1,1786,3.26725,-2.7001,0,1294.475,29.7,
1582,1,SBT2050,2,3,,1,1803,3.26174,-2.7,0,1307.225,29.7,
1582,1,SBT2050,2,3,,1,1820,3.256486,-2.6999,0,1319.975,29.7,
1582,1,SBT2050,2,3,,1,1837,3.250967,-2.7003,0,1332.725,29.8,
1582,1,SBT2050,2,3,,1,1854,3.24543,-2.6999,0,1345.475,29.8,
1582,1,SBT2050,2,3,,1,1871,3.23959,-2.7001,0,1358.224,29.8,
1582,1,SBT2050,2,3,,1,1888,3.233768,-2.7001,0,1370.974,29.8,
1582,1,SBT2050,2,3,,1,1905,3.22774,-2.6999,0,1383.724,29.9,
1582,1,SBT2050,2,3,,1,1922,3.22178,-2.6995,0,1396.474,29.9,
1582,1,SBT2050,2,3,,1,1939,3.21593,-2.7001,0,1409.224,29.9,
1582,1,SBT2050,2,3,,1,1956,3.20974,-2.7001,0,1421.973,30,
1582,1,SBT2050,2,3,,1,1973,3.20345,-2.7001,0,1434.723,30,
1582,1,SBT2050,2,3,,1,1990,3.196735,-2.7001,0,1447.473,30,
1582,1,SBT2050,2,3,,1,2007,3.19033,-2.6997,0,1460.223,30.1,
1582,1,SBT2050,2,3,,1,2024,3.18379,-2.7001,0,1472.973,30.1,
1582,1,SBT2050,2,3,,1,2041,3.17743,-2.6999,0,1485.722,30.2,
1582,1,SBT2050,2,3,,1,2058,3.17038,-2.7002,0,1498.472,30.2,
1582,1,SBT2050,2,3,,1,2075,3.16331,-2.6999,0,1511.222,30.2,
1582,1,SBT2050,2,3,,1,2092,3.15581,-2.6998,0,1523.972,30.3,
1582,1,SBT2050,2,3,,1,2109,3.14869,-2.7002,0,1536.721,30.4,
1582,1,SBT2050,2,3,,1,2126,3.14106,-2.7002,0,1549.471,30.3,
1582,1,SBT2050,2,3,,1,2143,3.133149,-2.6999,0,1562.221,30.4,
1582,1,SBT2050,2,3,,1,2160,3.12509,-2.6999,0,1574.971,30.5,
1582,1,SBT2050,2,3,,1,2177,3.117,-2.7002,0,1587.72,30.5,
1582,1,SBT2050,2,3,,1,2194,3.10863,-2.6996,0,1600.47,30.6,
1582,1,SBT2050,2,3,,1,2211,3.10012,-2.7002,0,1613.22,30.6,
1582,1,SBT2050,2,3,,1,2228,3.09125,-2.7002,0,1625.97,30.7,
1582,1,SBT2050,2,3,,1,2245,3.08245,-2.6998,0,1638.72,30.8,
1582,1,SBT2050,2,3,,1,2262,3.07311,-2.7,0,1651.469,30.8,
1582,1,SBT2050,2,3,,1,2279,3.063637,-2.6997,0,1664.219,30.9,
1582,1,SBT2050,2,3,,1,2296,3.05392,-2.6999,0,1676.969,31,
1582,1,SBT2050,2,3,,1,2313,3.04347,-2.7,0,1689.719,31,
1582,1,SBT2050,2,3,,1,2330,3.03265,-2.6995,0,1702.469,31.1,
1582,1,SBT2050,2,3,,1,2347,3.021968,-2.6999,0,1715.218,31.2,
1582,1,SBT2050,2,3,,1,2364,3.01068,-2.7003,0,1727.968,31.2,
1582,1,SBT2050,2,3,,1,2381,2.99895,-2.6999,0,1740.718,31.3,
1582,1,SBT2050,2,3,,1,2398,2.98698,-2.6996,0,1753.468,31.4,
1582,1,SBT2050,2,3,,1,2415,2.97406,-2.6997,0,1766.218,31.5,
1582,1,SBT2050,2,3,,1,2432,2.96076,-2.6995,0,1778.967,31.6,
1582,1,SBT2050,2,3,,1,2449,2.94668,-2.6998,0,1791.717,31.7,
1582,1,SBT2050,2,3,,1,2466,2.93202,-2.6999,0,1804.467,31.8,
1582,1,SBT2050,2,3,,1,2483,2.91721,-2.7002,0,1817.217,31.9,
1582,1,SBT2050,2,3,,1,2500,2.9009,-2.7002,0,1829.967,32,
1582,1,SBT2050,2,3,,1,2517,2.8835,-2.6996,0,1842.716,32.1,
1582,1,SBT2050,2,3,,1,2534,2.86503,-2.7004,0,1855.466,32.2,
1582,1,SBT2050,2,3,,1,2551,2.84499,-2.6999,0,1868.216,32.4,
1582,1,SBT2050,2,3,,1,2568,2.82303,-2.6998,0,1880.965,32.4,
1582,1,SBT2050,2,3,,1,2585,2.79932,-2.6998,0,1893.715,32.6,
1582,1,SBT2050,2,3,,1,2602,2.77306,-2.7001,0,1906.465,32.7,
1582,1,SBT2050,2,3,,1,2619,2.74461,-2.6994,0,1919.215,32.9,
1582,1,SBT2050,2,3,,1,2636,2.71348,-2.7003,0,1931.964,33,
1582,1,SBT2050,2,3,,1,2653,2.67874,-2.6998,0,1944.714,33.2,
1582,1,SBT2050,2,3,,1,2670,2.63995,-2.7002,0,1957.464,33.5,
1582,1,SBT2050,2,3,,1,2687,2.59593,-2.7002,0,1970.214,33.7,
1582,1,SBT2050,2,3,,1,2704,2.54548,-2.6999,0,1982.963,33.9,
1582,1,SBT2050,2,3,,2,2720,2.925312,0,0,1992.952,34.2,
1582,1,SBT2050,2,3,,2,2737,3.17857,0,0,1992.952,34.1,
1582,1,SBT2050,2,3,,2,2754,3.22979,0,0,1992.952,33.6,
1582,1,SBT2050,2,3,,2,2771,3.25913,0,0,1992.952,33.1,
1582,1,SBT2050,2,3,,2,2777.318,3.266905,-9.9E-05,0,1992.952,,