File: ORRG/Test1579.csv
Request Year:,2018,,,,,,,,,,,,
Test:,1579,,,,,,,,,,,,
Test Description:,,,,,,,,,,,,,
TestRegime Name:,Dchg_1C,,,,,,,,,,,,
TestRegime Suffix:,SHP_LC,,,,,,,,,,,,
TestRegime CellSize:,18650,,,,,,,,,,,,
TestRegime Version:,1,,,,,,,,,,,,
Number Of Cells:,1,,,,,,,,,,,,
LotID:,,,,,,,,,,,,,
Lot Description:,,,,,,,,,,,,,
Date Made:,1/21/2003 12:00 AM,,,,,,,,,,,,
Origin:,Other,,,,,,,,,,,,
Requestor:,Admin,,,,,,,,,,,,
Product ID:,Default product,,,,,,,,,,,,
Storage Temp:,R.T./AMB,,,,,,,,,,,,
Storage Delay:,0 days,,,,,,,,,,,,
Test Temp:,R.T./AMB,,,,,,,,,,,,
Start Time:,4/28/2018 12:12 AM,,,,,,,,,,,,
End Time:,4/28/2018 1:02 AM,,,,,,,,,,,,
Operator Instructions:,,,,,,,,,,,,,
Test,Cell,Rack,Shelf,Position,Cell ID,Step,Total Time (Seconds),Voltage (V),Current (A),Charge Capacity (mAh),Discharge Capacity (mAh),TC1 (Â°C),
1579,1,SBT2050,2,3,,0,1,4.17219,0,0,0,28.2,
1579,1,SBT2050,2,3,,0,19,4.16768,0,0,0,28.1,
1579,1,SBT2050,2,3,,0,37,4.16384,0,0,0,28.1,
1579,1,SBT2050,2,3,,0,55,4.16058,0,0,0,28.1,
1579,1,SBT2050,2,3,,1,73,3.8968,-2.6998,0,9.749,28.1,
1579,1,SBT2050,2,3,,1,91,3.86441,-2.7,0,23.248,28.3,
1579,1,SBT2050,2,3,,1,109,3.84406,-2.6994,0,36.748,28.5,
1579,1,SBT2050,2,3,,1,127,3.82843,-2.6997,0,50.248,28.6,
1579,1,SBT2050,2,3,,1,145,3.81528,-2.7001,0,63.747,28.7,
1579,1,SBT2050,2,3,,1,163,3.80398,-2.7002,0,77.247,28.8,
1579,1,SBT2050,2,3,,1,181,3.79472,-2.7,0,90.747,28.9,
1579,1,SBT2050,2,3,,1,199,3.78641,-2.6999,0,104.247,28.9,
1579,1,SBT2050,2,3,,1,217,3.779,-2.6999,0,117.746,29,
1579,1,SBT2050,2,3,,1,235,3.77217,-2.7002,0,131.246,29.1,
1579,1,SBT2050,2,3,,1,253,3.76634,-2.6997,0,144.746,29.1,
1579,1,SBT2050,2,3,,1,271,3.76088,-2.7,0,158.245,29.2,
1579,1,SBT2050,2,3,,1,289,3.75517,-2.7001,0,171.745,29.2,
1579,1,SBT2050,2,3,,1,307,3.75034,-2.6999,0,185.245,29.2,
1579,1,SBT2050,2,3,,1,325,3.744898,-2.6999,0,198.745,29.2,
1579,1,SBT2050,2,3,,1,343,3.73995,-2.7001,0,212.244,29.3,
1579,1,SBT2050,2,3,,1,361,3.73513,-2.6998,0,225.744,29.3,
1579,1,SBT2050,2,3,,1,379,3.73014,-2.6996,0,239.244,29.3,
1579,1,SBT2050,2,3,,1,397,3.72536,-2.6995,0,252.744,29.4,
1579,1,SBT2050,2,3,,1,415,3.72049,-2.6999,0,266.244,29.4,
1579,1,SBT2050,2,3,,1,433,3.715544,-2.6999,0,279.743,29.4,
1579,1,SBT2050,2,3,,1,451,3.71086,-2.6998,0,293.243,29.4,
1579,1,SBT2050,2,3,,1,469,3.70594,-2.6997,0,306.743,29.3,
1579,1,SBT2050,2,3,,1,487,3.70091,-2.7001,0,320.242,29.3,
1579,1,SBT2050,2,3,,1,505,3.69603,-2.7001,0,333.742,29.3,
1579,1,SBT2050,2,3,,1,523,3.69065,-2.7,0,347.242,29.3,
1579,1,SBT2050,2,3,,1,541,3.68581,-2.7002,0,360.742,29.3,
1579,1,SBT2050,2,3,,1,559,3.68083,-2.7003,0,374.241,29.3,
1579,1,SBT2050,2,3,,1,577,3.67552,-2.7001,0,387.741,29.3,
1579,1,SBT2050,2,3,,1,595,3.67067,-2.6998,0,401.241,29.2,
1579,1,SBT2050,2,3,,1,613,3.66572,-2.7001,0,414.741,29.2,
1579,1,SBT2050,2,3,,1,631,3.66074,-2.7,0,428.24,29.2,
1579,1,SBT2050,2,3,,1,649,3.65559,-2.6999,0,441.74,29.2,
1579,1,SBT2050,2,3,,1,667,3.650832,-2.7001,0,455.24,29.2,
1579,1,SBT2050,2,3,,1,685,3.64608,-2.6998,0,468.739,29.1,
1579,1,SBT2050,2,3,,1,703,3.64131,-2.6997,0,482.239,29.2,
1579,1,SBT2050,2,3,,1,721,3.63645,-2.7003,0,495.739,29.1,
1579,1,SBT2050,2,3,,1,739,3.63123,-2.7,0,509.239,29.1,
1579,1,SBT2050,2,3,,1,757,3.626064,-2.6997,0,522.738,29.1,
1579,1,SBT2050,2,3,,1,775,3.62099,-2.7,0,536.238,29.1,
1579,1,SBT2050,2,3,,1,793,3.616,-2.6997,0,549.738,29.1,
1579,1,SBT2050,2,3,,1,811,3.61097,-2.7002,0,563.238,29,
1579,1,SBT2050,2,3,,1,829,3.60589,-2.6999,0,576.737,29,
1579,1,SBT2050,2,3,,1,847,3.60112,-2.6997,0,590.237,29,
1579,1,SBT2050,2,3,,1,865,3.59617,-2.6999,0,603.737,29,
1579,1,SBT2050,2,3,,1,883,3.59117,-2.7005,0,617.236,29,
1579,1,SBT2050,2,3,,1,901,3.58624,-2.6999,0,630.736,29,
1579,1,SBT2050,2,3,,1,919,3.58098,-2.7,0,644.236,29,
1579,1,SBT2050,2,3,,1,937,3.57602,-2.7,0,657.736,29,
1579,1,SBT2050,2,3,,1,955,3.57083,-2.7,0,671.235,29,
1579,1,SBT2050,2,3,,1,973,3.56588,-2.7004,0,684.735,29,
1579,1,SBT2050,2,3,,1,991,3.56081,-2.7001,0,698.235,29,
1579,1,SBT2050,2,3,,1,1009,3.55563,-2.7001,0,711.735,29,
1579,1,SBT2050,2,3,,1,1027,3.55038,-2.6997,0,725.234,29.1,
1579,1,SBT2050,2,3,,1,1045,3.54539,-2.7,0,738.734,29.1,
1579,1,SBT2050,2,3,,1,1063,3.54044,-2.6997,0,752.234,29.1,
1579,1,SBT2050,2,3,,1,1081,3.53529,-2.6999,0,765.733,29.1,
1579,1,SBT2050,2,3,,1,1099,3.53021,-2.7004,0,779.233,29.1,
1579,1,SBT2050,2,3,,1,1117,3.52539,-2.7,0,792.733,29.1,
1579,1,SBT2050,2,3,,1,1135,3.519918,-2.6997,0,806.233,29.1,
1579,1,SBT2050,2,3,,1,1153,3.51457,-2.7,0,819.732,29.1,
1579,1,SBT2050,2,3,,1,1171,3.50961,-2.7001,0,833.232,29.1,
1579,1,SBT2050,2,3,,1,1189,3.504642,-2.7,0,846.732,29.1,
1579,1,SBT2050,2,3,,1,1207,3.49962,-2.6994,0,860.231,29.1,
1579,1,SBT2050,2,3,,1,1225,3.49419,-2.6997,0,873.731,29.1,
1579,1,SBT2050,2,3,,1,1243,3.48938,-2.6995,0,887.231,29.1,
1579,1,SBT2050,2,3,,1,1261,3.4843,-2.6998,0,900.731,29.2,
1579,1,SBT2050,2,3,,1,1279,3.47912,-2.6996,0,914.23,29.1,
1579,1,SBT2050,2,3,,1,1297,3.474046,-2.7001,0,927.73,29.1,
1579,1,SBT2050,2,3,,1,1315,3.468972,-2.7001,0,941.23,29.1,
1579,1,SBT2050,2,3,,1,1333,3.464118,-2.7,0,954.729,29.1,
1579,1,SBT2050,2,3,,1,1351,3.45879,-2.6997,0,968.229,29.1,
1579,1,SBT2050,2,3,,1,1369,3.453806,-2.6995,0,981.729,29.1,
1579,1,SBT2050,2,3,,1,1387,3.4489,-2.7,0,995.229,29.2,
1579,1,SBT2050,2,3,,1,1405,3.44391,-2.7002,0,1008.728,29.1,
1579,1,SBT2050,2,3,,1,1423,3.438732,-2.7002,0,1022.228,29.2,
1579,1,SBT2050,2,3,,1,1441,3.43375,-2.6995,0,1035.728,29.1,
1579,1,SBT2050,2,3,,1,1459,3.42844,-2.7001,0,1049.228,29.2,
1579,1,SBT2050,2,3,,1,1477,3.42351,-2.7001,0,1062.727,29.2,
1579,1,SBT2050,2,3,,1,1495,3.41859,-2.7004,0,1076.227,29.2,
1579,1,SBT2050,2,3,,1,1513,3.41353,-2.6998,0,1089.727,29.2,
1579,1,SBT2050,2,3,,1,1531,3.40909,-2.6999,0,1103.226,29.2,
1579,1,SBT2050,2,3,,1,1549,3.4044,-2.7,0,1116.726,29.2,
1579,1,SBT2050,2,3,,1,1567,3.39912,-2.6997,0,1130.226,29.2,
1579,1,SBT2050,2,3,,1,1585,3.39414,-2.7,0,1143.726,29.2,
1579,1,SBT2050,2,3,,1,1603,3.388914,-2.7002,0,1157.225,29.2,
1579,1,SBT2050,2,3,,1,1621,3.38397,-2.6998,0,1170.725,29.2,
1579,1,SBT2050,2,3,,1,1639,3.37888,-2.7003,0,1184.225,29.2,
1579,1,SBT2050,2,3,,1,1657,3.37397,-2.6998,0,1197.724,29.2,
1579,1,SBT2050,2,3,,1,1675,3.36922,-2.7001,0,1211.224,29.2,
1579,1,SBT2050,2,3,,1,1693,3.363934,-2.7001,0,1224.724,29.2,
1579,1,SBT2050,2,3,,1,1711,3.35918,-2.7001,0,1238.224,29.2,
1579,1,SBT2050,2,3,,1,1729,3.35422,-2.7002,0,1251.723,29.2,
1579,1,SBT2050,2,3,,1,1747,3.348923,-2.6997,0,1265.223,29.3,
1579,1,SBT2050,2,3,,1,1765,3.34374,-2.7002,0,1278.723,29.3,
1579,1,SBT2050,2,3,,1,1783,3.3389,-2.7,0,1292.222,29.3,
1579,1,SBT2050,2,3,,1,1801,3.33406,-2.7,0,1305.722,29.3,
1579,1,SBT2050,2,3,,1,1819,3.32896,-2.7,0,1319.222,29.3,
1579,1,SBT2050,2,3,,1,1837,3.32382,-2.6998,0,1332.721,29.4,
1579,1,SBT2050,2,3,,1,1855,3.31835,-2.7,0,1346.221,29.4,
1579,1,SBT2050,2,3,,1,1873,3.31333,-2.7,0,1359.721,29.4,
1579,1,SBT2050,2,3,,1,1891,3.307886,-2.7001,0,1373.221,29.4,
1579,1,SBT2050,2,3,,1,1909,3.302511,-2.7002,0,1386.721,29.5,
1579,1,SBT2050,2,3,,1,1927,3.29732,-2.6999,0,1400.22,29.4,
1579,1,SBT2050,2,3,,1,1945,3.29219,-2.7001,0,1413.72,29.5,
1579,1,SBT2050,2,3,,1,1963,3.28672,-2.7,0,1427.22,29.5,
1579,1,SBT2050,2,3,,1,1981,3.28118,-2.6999,0,1440.72,29.5,
1579,1,SBT2050,2,3,,1,1999,3.27544,-2.6998,0,1454.219,29.5,
1579,1,SBT2050,2,3,,1,2017,3.269844,-2.7001,0,1467.719,29.6,
1579,1,SBT2050,2,3,,1,2035,3.26412,-2.6997,0,1481.219,29.6,
1579,1,SBT2050,2,3,,1,2053,3.258461,-2.7001,0,1494.718,29.6,
1579,1,SBT2050,2,3,,1,2071,3.25275,-2.6998,0,1508.218,29.7,
1579,1,SBT2050,2,3,,1,2089,3.247076,-2.6998,0,1521.718,29.7,
1579,1,SBT2050,2,3,,1,2107,3.24095,-2.6999,0,1535.217,29.7,
1579,1,SBT2050,2,3,,1,2125,3.23481,-2.7001,0,1548.717,29.8,
1579,1,SBT2050,2,3,,1,2143,3.22836,-2.7001,0,1562.217,29.8,
1579,1,SBT2050,2,3,,1,2161,3.22218,-2.7,0,1575.717,29.9,
1579,1,SBT2050,2,3,,1,2179,3.21567,-2.7003,0,1589.216,29.9,
1579,1,SBT2050,2,3,,1,2197,3.209059,-2.7,0,1602.716,29.9,
1579,1,SBT2050,2,3,,1,2215,3.20237,-2.7,0,1616.216,30,
1579,1,SBT2050,2,3,,1,2233,3.1957,-2.7003,0,1629.716,30.1,
1579,1,SBT2050,2,3,,1,2251,3.18863,-2.7003,0,1643.215,30.1,
1579,1,SBT2050,2,3,,1,2269,3.181536,-2.7001,0,1656.715,30.1,
1579,1,SBT2050,2,3,,1,2287,3.17428,-2.7,0,1670.215,30.2,
1579,1,SBT2050,2,3,,1,2305,3.16673,-2.6994,0,1683.715,30.2,
1579,1,SBT2050,2,3,,1,2323,3.15934,-2.7001,0,1697.214,30.3,
1579,1,SBT2050,2,3,,1,2341,3.15162,-2.7002,0,1710.714,30.3,
1579,1,SBT2050,2,3,,1,2359,3.14381,-2.6999,0,1724.214,30.4,
1579,1,SBT2050,2,3,,1,2377,3.13589,-2.6998,0,1737.714,30.5,
1579,1,SBT2050,2,3,,1,2395,3.12732,-2.6999,0,1751.214,30.5,
1579,1,SBT2050,2,3,,1,2413,3.11849,-2.7003,0,1764.713,30.6,
1579,1,SBT2050,2,3,,1,2431,3.10976,-2.6999,0,1778.213,30.7,
1579,1,SBT2050,2,3,,1,2449,3.10053,-2.6994,0,1791.713,30.7,
1579,1,SBT2050,2,3,,1,2467,3.090938,-2.6995,0,1805.213,30.8,
1579,1,SBT2050,2,3,,1,2485,3.08095,-2.6997,0,1818.713,30.9,
1579,1,SBT2050,2,3,,1,2503,3.07105,-2.6997,0,1832.212,30.9,
1579,1,SBT2050,2,3,,1,2521,3.060554,-2.7,0,1845.712,31,
1579,1,SBT2050,2,3,,1,2539,3.04989,-2.6998,0,1859.212,31,
1579,1,SBT2050,2,3,,1,2557,3.03916,-2.6997,0,1872.711,31.1,
1579,1,SBT2050,2,3,,1,2575,3.027633,-2.6997,0,1886.211,31.2,
1579,1,SBT2050,2,3,,1,2593,3.01587,-2.6999,0,1899.711,31.3,
1579,1,SBT2050,2,3,,1,2611,3.00364,-2.6998,0,1913.211,31.4,
1579,1,SBT2050,2,3,,1,2629,2.99076,-2.6999,0,1926.711,31.5,
1579,1,SBT2050,2,3,,1,2647,2.97747,-2.7002,0,1940.21,31.5,
1579,1,SBT2050,2,3,,1,2665,2.96341,-2.7001,0,1953.71,31.6,
1579,1,SBT2050,2,3,,1,2683,2.948662,-2.7001,0,1967.21,31.7,
1579,1,SBT2050,2,3,,1,2701,2.9331,-2.7001,0,1980.71,31.9,
1579,1,SBT2050,2,3,,1,2719,2.91712,-2.7001,0,1994.209,31.9,
1579,1,SBT2050,2,3,,1,2737,2.89978,-2.6999,0,2007.709,32,
1579,1,SBT2050,2,3,,1,2755,2.881078,-2.7001,0,2021.209,32.2,
1579,1,SBT2050,2,3,,1,2773,2.86104,-2.6998,0,2034.709,32.3,
1579,1,SBT2050,2,3,,1,2791,2.839269,-2.7004,0,2048.209,32.4,
1579,1,SBT2050,2,3,,1,2809,2.81587,-2.7002,0,2061.708,32.5,
1579,1,SBT2050,2,3,,1,2827,2.79016,-2.7001,0,2075.208,32.7,
1579,1,SBT2050,2,3,,1,2845,2.76227,-2.6996,0,2088.708,32.9,
1579,1,SBT2050,2,3,,1,2863,2.73183,-2.6996,0,2102.208,33,
1579,1,SBT2050,2,3,,1,2881,2.69821,-2.6995,0,2115.707,33.2,
1579,1,SBT2050,2,3,,1,2899,2.6604,-2.6997,0,2129.207,33.4,
1579,1,SBT2050,2,3,,1,2917,2.6174,-2.7002,0,2142.707,33.7,
1579,1,SBT2050,2,3,,1,2935,2.568301,-2.7001,0,2156.207,33.9,
1579,1,SBT2050,2,3,,1,2953,2.51138,-2.7001,0,2169.707,34.2,
1579,1,SBT2050,2,3,,2,2970,3.153929,0,0,2172.133,34.3,
1579,1,SBT2050,2,3,,2,2988,3.22638,0,0,2172.133,33.8,
1579,1,SBT2050,2,3,,2,3006,3.26122,0,0,2172.133,33.3,
1579,1,SBT2050,2,3,,2,3016.235,3.27443,-9.9E-05,0,2172.133,,