File: ORRG/Test1573.csv
Request Year:,2018,,,,,,,,,,,,
Test:,1573,,,,,,,,,,,,
Test Description:,,,,,,,,,,,,,
TestRegime Name:,Dchg_1C,,,,,,,,,,,,
TestRegime Suffix:,SHP_LC,,,,,,,,,,,,
TestRegime CellSize:,18650,,,,,,,,,,,,
TestRegime Version:,1,,,,,,,,,,,,
Number Of Cells:,1,,,,,,,,,,,,
LotID:,,,,,,,,,,,,,
Lot Description:,,,,,,,,,,,,,
Date Made:,1/21/2003 12:00 AM,,,,,,,,,,,,
Origin:,Other,,,,,,,,,,,,
Requestor:,Admin,,,,,,,,,,,,
Product ID:,Default product,,,,,,,,,,,,
Storage Temp:,R.T./AMB,,,,,,,,,,,,
Storage Delay:,0 days,,,,,,,,,,,,
Test Temp:,R.T./AMB,,,,,,,,,,,,
Start Time:,4/27/2018 10:52 AM,,,,,,,,,,,,
End Time:,4/27/2018 11:39 AM,,,,,,,,,,,,
Operator Instructions:,,,,,,,,,,,,,
Test,Cell,Rack,Shelf,Position,Cell ID,Step,Total Time (Seconds),Voltage (V),Current (A),Charge Capacity (mAh),Discharge Capacity (mAh),TC1 (Â°C),
1573,1,SBT2050,2,3,,0,1,4.0186,0,0,0,28,
1573,1,SBT2050,2,3,,0,18,4.0186,0,0,0,27.9,
1573,1,SBT2050,2,3,,0,35,4.01826,0,0,0,27.9,
1573,1,SBT2050,2,3,,0,52,4.01832,0,0,0,27.9,
1573,1,SBT2050,2,3,,1,69,3.81581,-2.6999,0,6.749,27.9,
1573,1,SBT2050,2,3,,1,86,3.784466,-2.7001,0,19.498,28,
1573,1,SBT2050,2,3,,1,103,3.767576,-2.6997,0,32.248,28.2,
1573,1,SBT2050,2,3,,1,120,3.75536,-2.6999,0,44.998,28.2,
1573,1,SBT2050,2,3,,1,137,3.74548,-2.7,0,57.748,28.3,
1573,1,SBT2050,2,3,,1,154,3.73739,-2.6996,0,70.497,28.4,
1573,1,SBT2050,2,3,,1,171,3.73013,-2.7003,0,83.247,28.5,
1573,1,SBT2050,2,3,,1,188,3.72347,-2.7002,0,95.997,28.5,
1573,1,SBT2050,2,3,,1,205,3.717618,-2.6999,0,108.747,28.6,
1573,1,SBT2050,2,3,,1,222,3.71178,-2.6998,0,121.496,28.6,
1573,1,SBT2050,2,3,,1,239,3.70628,-2.6997,0,134.246,28.7,
1573,1,SBT2050,2,3,,1,256,3.70117,-2.6998,0,146.996,28.7,
1573,1,SBT2050,2,3,,1,273,3.696,-2.7,0,159.746,28.8,
1573,1,SBT2050,2,3,,1,290,3.69095,-2.7,0,172.495,28.8,
1573,1,SBT2050,2,3,,1,307,3.68604,-2.7003,0,185.245,28.8,
1573,1,SBT2050,2,3,,1,324,3.68104,-2.7003,0,197.995,28.8,
1573,1,SBT2050,2,3,,1,341,3.67614,-2.6996,0,210.744,28.8,
1573,1,SBT2050,2,3,,1,358,3.67162,-2.7,0,223.494,28.9,
1573,1,SBT2050,2,3,,1,375,3.66725,-2.7,0,236.244,28.9,
1573,1,SBT2050,2,3,,1,392,3.66252,-2.6997,0,248.994,28.9,
1573,1,SBT2050,2,3,,1,409,3.65834,-2.6999,0,261.743,28.9,
1573,1,SBT2050,2,3,,1,426,3.6535,-2.6999,0,274.493,28.9,
1573,1,SBT2050,2,3,,1,443,3.64881,-2.6996,0,287.243,28.9,
1573,1,SBT2050,2,3,,1,460,3.64458,-2.7,0,299.993,29,
1573,1,SBT2050,2,3,,1,477,3.64017,-2.7001,0,312.742,29,
1573,1,SBT2050,2,3,,1,494,3.63586,-2.6998,0,325.492,29,
1573,1,SBT2050,2,3,,1,511,3.63102,-2.6996,0,338.242,29,
1573,1,SBT2050,2,3,,1,528,3.6267,-2.6998,0,350.992,29,
1573,1,SBT2050,2,3,,1,545,3.622162,-2.7,0,363.741,29,
1573,1,SBT2050,2,3,,1,562,3.61768,-2.7001,0,376.491,29,
1573,1,SBT2050,2,3,,1,579,3.61322,-2.6998,0,389.241,29,
1573,1,SBT2050,2,3,,1,596,3.608662,-2.6999,0,401.991,29,
1573,1,SBT2050,2,3,,1,613,3.60456,-2.6999,0,414.741,29,
1573,1,SBT2050,2,3,,1,630,3.60008,-2.6998,0,427.49,29.1,
1573,1,SBT2050,2,3,,1,647,3.59537,-2.6998,0,440.24,29,
1573,1,SBT2050,2,3,,1,664,3.59102,-2.7,0,452.99,29,
1573,1,SBT2050,2,3,,1,681,3.58668,-2.6998,0,465.74,29.1,
1573,1,SBT2050,2,3,,1,698,3.582218,-2.7001,0,478.489,29,
1573,1,SBT2050,2,3,,1,715,3.57752,-2.6998,0,491.239,29.1,
1573,1,SBT2050,2,3,,1,732,3.57301,-2.6996,0,503.989,29.1,
1573,1,SBT2050,2,3,,1,749,3.56836,-2.6995,0,516.739,29.1,
1573,1,SBT2050,2,3,,1,766,3.564044,-2.7003,0,529.488,29.1,
1573,1,SBT2050,2,3,,1,783,3.55954,-2.6998,0,542.238,29.1,
1573,1,SBT2050,2,3,,1,800,3.554738,-2.6999,0,554.988,29.1,
1573,1,SBT2050,2,3,,1,817,3.55013,-2.6999,0,567.738,29.1,
1573,1,SBT2050,2,3,,1,834,3.54526,-2.6999,0,580.487,29.1,
1573,1,SBT2050,2,3,,1,851,3.5407,-2.7003,0,593.237,29.1,
1573,1,SBT2050,2,3,,1,868,3.53608,-2.6998,0,605.987,29.1,
1573,1,SBT2050,2,3,,1,885,3.53135,-2.7001,0,618.737,29.1,
1573,1,SBT2050,2,3,,1,902,3.5269,-2.7001,0,631.486,29.1,
1573,1,SBT2050,2,3,,1,919,3.52241,-2.6998,0,644.236,29.1,
1573,1,SBT2050,2,3,,1,936,3.51744,-2.7,0,656.986,29.1,
1573,1,SBT2050,2,3,,1,953,3.51284,-2.6997,0,669.735,29.2,
1573,1,SBT2050,2,3,,1,970,3.507968,-2.7001,0,682.485,29.2,
1573,1,SBT2050,2,3,,1,987,3.50361,-2.7001,0,695.235,29.2,
1573,1,SBT2050,2,3,,1,1004,3.498928,-2.6998,0,707.984,29.2,
1573,1,SBT2050,2,3,,1,1021,3.49395,-2.6998,0,720.734,29.2,
1573,1,SBT2050,2,3,,1,1038,3.489562,-2.6998,0,733.484,29.2,
1573,1,SBT2050,2,3,,1,1055,3.48485,-2.7001,0,746.234,29.1,
1573,1,SBT2050,2,3,,1,1072,3.48,-2.6997,0,758.983,29.1,
1573,1,SBT2050,2,3,,1,1089,3.47539,-2.6999,0,771.733,29.2,
1573,1,SBT2050,2,3,,1,1106,3.47071,-2.6999,0,784.483,29.2,
1573,1,SBT2050,2,3,,1,1123,3.46623,-2.7002,0,797.233,29.2,
1573,1,SBT2050,2,3,,1,1140,3.4615,-2.7004,0,809.982,29.2,
1573,1,SBT2050,2,3,,1,1157,3.456676,-2.7001,0,822.732,29.2,
1573,1,SBT2050,2,3,,1,1174,3.45197,-2.7003,0,835.482,29.2,
1573,1,SBT2050,2,3,,1,1191,3.44755,-2.6997,0,848.232,29.2,
1573,1,SBT2050,2,3,,1,1208,3.44321,-2.7001,0,860.981,29.2,
1573,1,SBT2050,2,3,,1,1225,3.43849,-2.7,0,873.731,29.2,
1573,1,SBT2050,2,3,,1,1242,3.4337,-2.6998,0,886.481,29.2,
1573,1,SBT2050,2,3,,1,1259,3.42896,-2.6999,0,899.23,29.2,
1573,1,SBT2050,2,3,,1,1276,3.424416,-2.6996,0,911.98,29.3,
1573,1,SBT2050,2,3,,1,1293,3.41987,-2.7002,0,924.73,29.2,
1573,1,SBT2050,2,3,,1,1310,3.41552,-2.6999,0,937.48,29.2,
1573,1,SBT2050,2,3,,1,1327,3.41086,-2.6996,0,950.23,29.2,
1573,1,SBT2050,2,3,,1,1344,3.40613,-2.7002,0,962.979,29.2,
1573,1,SBT2050,2,3,,1,1361,3.40163,-2.6998,0,975.729,29.3,
1573,1,SBT2050,2,3,,1,1378,3.39695,-2.6995,0,988.479,29.3,
1573,1,SBT2050,2,3,,1,1395,3.39236,-2.7004,0,1001.229,29.3,
1573,1,SBT2050,2,3,,1,1412,3.38802,-2.6999,0,1013.978,29.2,
1573,1,SBT2050,2,3,,1,1429,3.3834,-2.6998,0,1026.728,29.3,
1573,1,SBT2050,2,3,,1,1446,3.37871,-2.6997,0,1039.478,29.3,
1573,1,SBT2050,2,3,,1,1463,3.3741,-2.6998,0,1052.228,29.3,
1573,1,SBT2050,2,3,,1,1480,3.36947,-2.7,0,1064.977,29.3,
1573,1,SBT2050,2,3,,1,1497,3.36517,-2.7,0,1077.727,29.3,
1573,1,SBT2050,2,3,,1,1514,3.36049,-2.7001,0,1090.477,29.4,
1573,1,SBT2050,2,3,,1,1531,3.35594,-2.7,0,1103.226,29.4,
1573,1,SBT2050,2,3,,1,1548,3.35122,-2.7002,0,1115.976,29.4,
1573,1,SBT2050,2,3,,1,1565,3.346547,-2.6997,0,1128.726,29.4,
1573,1,SBT2050,2,3,,1,1582,3.34177,-2.7,0,1141.476,29.4,
1573,1,SBT2050,2,3,,1,1599,3.33694,-2.6998,0,1154.225,29.4,
1573,1,SBT2050,2,3,,1,1616,3.33245,-2.6995,0,1166.975,29.5,
1573,1,SBT2050,2,3,,1,1633,3.32758,-2.7001,0,1179.725,29.4,
1573,1,SBT2050,2,3,,1,1650,3.32283,-2.7,0,1192.474,29.4,
1573,1,SBT2050,2,3,,1,1667,3.31787,-2.6998,0,1205.224,29.5,
1573,1,SBT2050,2,3,,1,1684,3.31303,-2.7,0,1217.974,29.5,
1573,1,SBT2050,2,3,,1,1701,3.308296,-2.7001,0,1230.723,29.5,
1573,1,SBT2050,2,3,,1,1718,3.30319,-2.7001,0,1243.473,29.5,
1573,1,SBT2050,2,3,,1,1735,3.29828,-2.6997,0,1256.223,29.5,
1573,1,SBT2050,2,3,,1,1752,3.29333,-2.7,0,1268.973,29.5,
1573,1,SBT2050,2,3,,1,1769,3.28854,-2.6999,0,1281.722,29.6,
1573,1,SBT2050,2,3,,1,1786,3.28337,-2.6998,0,1294.472,29.6,
1573,1,SBT2050,2,3,,1,1803,3.27808,-2.7001,0,1307.222,29.6,
1573,1,SBT2050,2,3,,1,1820,3.27312,-2.7002,0,1319.971,29.6,
1573,1,SBT2050,2,3,,1,1837,3.26791,-2.6992,0,1332.721,29.7,
1573,1,SBT2050,2,3,,1,1854,3.26225,-2.7001,0,1345.471,29.7,
1573,1,SBT2050,2,3,,1,1871,3.25696,-2.7001,0,1358.221,29.7,
1573,1,SBT2050,2,3,,1,1888,3.25179,-2.7,0,1370.97,29.7,
1573,1,SBT2050,2,3,,1,1905,3.24593,-2.7003,0,1383.72,29.8,
1573,1,SBT2050,2,3,,1,1922,3.240198,-2.7002,0,1396.47,29.8,
1573,1,SBT2050,2,3,,1,1939,3.2346,-2.6998,0,1409.22,29.9,
1573,1,SBT2050,2,3,,1,1956,3.22838,-2.6998,0,1421.97,29.9,
1573,1,SBT2050,2,3,,1,1973,3.22277,-2.7006,0,1434.719,29.9,
1573,1,SBT2050,2,3,,1,1990,3.216758,-2.6998,0,1447.469,29.9,
1573,1,SBT2050,2,3,,1,2007,3.21054,-2.7001,0,1460.219,29.9,
1573,1,SBT2050,2,3,,1,2024,3.2044,-2.6998,0,1472.969,30,
1573,1,SBT2050,2,3,,1,2041,3.19802,-2.7003,0,1485.718,30,
1573,1,SBT2050,2,3,,1,2058,3.19174,-2.6997,0,1498.468,30.1,
1573,1,SBT2050,2,3,,1,2075,3.18507,-2.7001,0,1511.218,30.1,
1573,1,SBT2050,2,3,,1,2092,3.178491,-2.6997,0,1523.967,30.1,
1573,1,SBT2050,2,3,,1,2109,3.17125,-2.7001,0,1536.717,30.2,
1573,1,SBT2050,2,3,,1,2126,3.164141,-2.6999,0,1549.467,30.2,
1573,1,SBT2050,2,3,,1,2143,3.157,-2.6999,0,1562.217,30.2,
1573,1,SBT2050,2,3,,1,2160,3.14948,-2.6998,0,1574.967,30.3,
1573,1,SBT2050,2,3,,1,2177,3.14209,-2.6998,0,1587.716,30.3,
1573,1,SBT2050,2,3,,1,2194,3.13431,-2.7001,0,1600.466,30.4,
1573,1,SBT2050,2,3,,1,2211,3.1261,-2.6996,0,1613.216,30.4,
1573,1,SBT2050,2,3,,1,2228,3.11801,-2.7,0,1625.965,30.4,
1573,1,SBT2050,2,3,,1,2245,3.10963,-2.6997,0,1638.715,30.5,
1573,1,SBT2050,2,3,,1,2262,3.10133,-2.7,0,1651.465,30.6,
1573,1,SBT2050,2,3,,1,2279,3.09229,-2.7001,0,1664.215,30.7,
1573,1,SBT2050,2,3,,1,2296,3.08327,-2.7001,0,1676.964,30.7,
1573,1,SBT2050,2,3,,1,2313,3.07416,-2.7002,0,1689.714,30.8,
1573,1,SBT2050,2,3,,1,2330,3.0644,-2.6999,0,1702.464,30.8,
1573,1,SBT2050,2,3,,1,2347,3.054596,-2.6998,0,1715.214,30.9,
1573,1,SBT2050,2,3,,1,2364,3.04464,-2.6998,0,1727.963,31,
1573,1,SBT2050,2,3,,1,2381,3.033769,-2.6998,0,1740.713,31,
1573,1,SBT2050,2,3,,1,2398,3.02281,-2.7001,0,1753.463,31.1,
1573,1,SBT2050,2,3,,1,2415,3.01137,-2.7002,0,1766.212,31.2,
1573,1,SBT2050,2,3,,1,2432,2.999846,-2.7003,0,1778.962,31.3,
1573,1,SBT2050,2,3,,1,2449,2.98766,-2.7001,0,1791.712,31.3,
1573,1,SBT2050,2,3,,1,2466,2.97474,-2.6997,0,1804.462,31.4,
1573,1,SBT2050,2,3,,1,2483,2.96139,-2.6999,0,1817.212,31.5,
1573,1,SBT2050,2,3,,1,2500,2.94736,-2.7002,0,1829.961,31.6,
1573,1,SBT2050,2,3,,1,2517,2.932911,-2.7004,0,1842.711,31.7,
1573,1,SBT2050,2,3,,1,2534,2.9179,-2.7,0,1855.461,31.8,
1573,1,SBT2050,2,3,,1,2551,2.90134,-2.7001,0,1868.211,31.9,
1573,1,SBT2050,2,3,,1,2568,2.88392,-2.7002,0,1880.96,32,
1573,1,SBT2050,2,3,,1,2585,2.86547,-2.7003,0,1893.71,32.2,
1573,1,SBT2050,2,3,,1,2602,2.84549,-2.7001,0,1906.46,32.3,
1573,1,SBT2050,2,3,,1,2619,2.823769,-2.7002,0,1919.21,32.4,
1573,1,SBT2050,2,3,,1,2636,2.80019,-2.7003,0,1931.959,32.6,
1573,1,SBT2050,2,3,,1,2653,2.77383,-2.7,0,1944.709,32.7,
1573,1,SBT2050,2,3,,1,2670,2.74554,-2.6997,0,1957.459,32.9,
1573,1,SBT2050,2,3,,1,2687,2.71441,-2.7,0,1970.208,33.1,
1573,1,SBT2050,2,3,,1,2704,2.67998,-2.7001,0,1982.958,33.2,
1573,1,SBT2050,2,3,,1,2721,2.64196,-2.7001,0,1995.708,33.4,
1573,1,SBT2050,2,3,,1,2738,2.59881,-2.7005,0,2008.458,33.7,
1573,1,SBT2050,2,3,,1,2755,2.54946,-2.6999,0,2021.208,33.9,
1573,1,SBT2050,2,3,,2,2771,2.80375,0,0,2032.283,34.2,
1573,1,SBT2050,2,3,,2,2788,3.181884,0,0,2032.283,34,
1573,1,SBT2050,2,3,,2,2805,3.23622,0,0,2032.283,33.6,
1573,1,SBT2050,2,3,,2,2822,3.26569,0,0,2032.283,33.1,
1573,1,SBT2050,2,3,,2,2829.766,3.275028,-9.9E-05,0,2032.283,,