File: ORRG/Test1552.csv
Request Year:,2018,,,,,,,,,,,,
Test:,1552,,,,,,,,,,,,
Test Description:,,,,,,,,,,,,,
TestRegime Name:,Aging_test caseB_1,,,,,,,,,,,,
TestRegime Suffix:,SHP_LC,,,,,,,,,,,,
TestRegime CellSize:,18650,,,,,,,,,,,,
TestRegime Version:,3,,,,,,,,,,,,
Number Of Cells:,1,,,,,,,,,,,,
LotID:,,,,,,,,,,,,,
Lot Description:,,,,,,,,,,,,,
Date Made:,1/21/2003 12:00 AM,,,,,,,,,,,,
Origin:,Other,,,,,,,,,,,,
Requestor:,Admin,,,,,,,,,,,,
Product ID:,Default product,,,,,,,,,,,,
Storage Temp:,R.T./AMB,,,,,,,,,,,,
Storage Delay:,0 days,,,,,,,,,,,,
Test Temp:,R.T./AMB,,,,,,,,,,,,
Start Time:,4/25/2018 9:41 AM,,,,,,,,,,,,
End Time:,4/25/2018 10:56 AM,,,,,,,,,,,,
Operator Instructions:,,,,,,,,,,,,,
Test,Cell,Rack,Shelf,Position,Cell ID,Step,Total Time (Seconds),Voltage (V),Current (A),Charge Capacity (mAh),Discharge Capacity (mAh),Trs (Â°C),
1552,1,SBT2050,2,3,,0,0.1,3.37248,0,0,0,,
1552,1,SBT2050,2,3,,0,23.4,3.372678,0,0,0,,
1552,1,SBT2050,2,3,,0,46.7,3.37261,0,0,0,,
1552,1,SBT2050,2,3,,0,70,3.37268,0,0,0,,
1552,1,SBT2050,2,3,,0,93.3,3.37279,0,0,0,,
1552,1,SBT2050,2,3,,0,116.6,3.37274,0,0,0,,
1552,1,SBT2050,2,3,,0,139.9,3.37288,0,0,0,,
1552,1,SBT2050,2,3,,0,163.2,3.37302,0,0,0,,
1552,1,SBT2050,2,3,,0,186.5,3.37308,0,0,0,,
1552,1,SBT2050,2,3,,0,209.8,3.37334,0,0,0,,
1552,1,SBT2050,2,3,,0,233.1,3.37343,0,0,0,,
1552,1,SBT2050,2,3,,0,256.4,3.37349,0,0,0,,
1552,1,SBT2050,2,3,,0,279.7,3.37384,0,0,0,,
1552,1,SBT2050,2,3,,0,303,3.37409,0,0,0,,
1552,1,SBT2050,2,3,,0,326.3,3.3738,0,0,0,,
1552,1,SBT2050,2,3,,0,349.6,3.37391,0,0,0,,
1552,1,SBT2050,2,3,,0,372.9,3.37382,0,0,0,,
1552,1,SBT2050,2,3,,0,396.2,3.37409,0,0,0,,
1552,1,SBT2050,2,3,,0,419.5,3.37408,0,0,0,,
1552,1,SBT2050,2,3,,0,442.8,3.37429,0,0,0,,
1552,1,SBT2050,2,3,,0,466.1,3.37428,0,0,0,,
1552,1,SBT2050,2,3,,0,489.4,3.3744,0,0,0,,
1552,1,SBT2050,2,3,,0,512.7,3.37434,0,0,0,,
1552,1,SBT2050,2,3,,0,536,3.37461,0,0,0,,
1552,1,SBT2050,2,3,,0,559.3,3.37467,0,0,0,,
1552,1,SBT2050,2,3,,0,582.6,3.374796,0,0,0,,
1552,1,SBT2050,2,3,,0,605.9,3.37484,0,0,0,,
1552,1,SBT2050,2,3,,0,629.2,3.37484,0,0,0,,
1552,1,SBT2050,2,3,,0,652.5,3.37494,0,0,0,,
1552,1,SBT2050,2,3,,0,675.8,3.374938,0,0,0,,
1552,1,SBT2050,2,3,,0,699.1,3.37514,0,0,0,,
1552,1,SBT2050,2,3,,0,722.4,3.37501,0,0,0,,
1552,1,SBT2050,2,3,,0,745.7,3.37523,0,0,0,,
1552,1,SBT2050,2,3,,0,769,3.37525,0,0,0,,
1552,1,SBT2050,2,3,,0,792.3,3.37514,0,0,0,,
1552,1,SBT2050,2,3,,0,815.6,3.37511,0,0,0,,
1552,1,SBT2050,2,3,,0,838.9,3.37555,0,0,0,,
1552,1,SBT2050,2,3,,0,862.2,3.37552,0,0,0,,
1552,1,SBT2050,2,3,,0,885.5,3.3755,0,0,0,,
1552,1,SBT2050,2,3,,0,908.8,3.375854,0,0,0,,
1552,1,SBT2050,2,3,,0,932.1,3.375524,0,0,0,,
1552,1,SBT2050,2,3,,0,955.4,3.37585,0,0,0,,
1552,1,SBT2050,2,3,,0,978.7,3.376092,0,0,0,,
1552,1,SBT2050,2,3,,0,1002,3.37596,0,0,0,25.1,
1552,1,SBT2050,2,3,,0,1025.3,3.37622,0,0,0,,
1552,1,SBT2050,2,3,,0,1048.6,3.37631,0,0,0,,
1552,1,SBT2050,2,3,,0,1071.9,3.3762,0,0,0,,
1552,1,SBT2050,2,3,,0,1095.2,3.37641,0,0,0,,
1552,1,SBT2050,2,3,,0,1118.5,3.37628,0,0,0,,
1552,1,SBT2050,2,3,,0,1141.8,3.37628,0,0,0,,
1552,1,SBT2050,2,3,,0,1165.1,3.37651,0,0,0,,
1552,1,SBT2050,2,3,,0,1188.4,3.37664,0,0,0,,
1552,1,SBT2050,2,3,,0,1211.7,3.37645,0,0,0,,
1552,1,SBT2050,2,3,,0,1235,3.37654,0,0,0,,
1552,1,SBT2050,2,3,,0,1258.3,3.37675,0,0,0,,
1552,1,SBT2050,2,3,,0,1281.6,3.37678,0,0,0,,
1552,1,SBT2050,2,3,,0,1304.9,3.37682,0,0,0,,
1552,1,SBT2050,2,3,,0,1328.2,3.37671,0,0,0,,
1552,1,SBT2050,2,3,,0,1351.5,3.37696,0,0,0,,
1552,1,SBT2050,2,3,,0,1374.8,3.37702,0,0,0,,
1552,1,SBT2050,2,3,,0,1398.1,3.37691,0,0,0,,
1552,1,SBT2050,2,3,,0,1421.4,3.37709,0,0,0,,
1552,1,SBT2050,2,3,,0,1444.7,3.3769,0,0,0,,
1552,1,SBT2050,2,3,,0,1468,3.37723,0,0,0,,
1552,1,SBT2050,2,3,,0,1491.3,3.37716,0,0,0,,
1552,1,SBT2050,2,3,,0,1514.6,3.377458,0,0,0,,
1552,1,SBT2050,2,3,,0,1537.9,3.37761,0,0,0,,
1552,1,SBT2050,2,3,,0,1561.2,3.37783,0,0,0,,
1552,1,SBT2050,2,3,,0,1584.5,3.3775,0,0,0,,
1552,1,SBT2050,2,3,,0,1607.8,3.3774,0,0,0,,
1552,1,SBT2050,2,3,,0,1631.1,3.377708,0,0,0,,
1552,1,SBT2050,2,3,,0,1654.4,3.37753,0,0,0,,
1552,1,SBT2050,2,3,,0,1677.7,3.37776,0,0,0,,
1552,1,SBT2050,2,3,,0,1701,3.37786,0,0,0,,
1552,1,SBT2050,2,3,,0,1724.3,3.37767,0,0,0,,
1552,1,SBT2050,2,3,,0,1747.6,3.37782,0,0,0,,
1552,1,SBT2050,2,3,,0,1770.9,3.37782,0,0,0,,
1552,1,SBT2050,2,3,,0,1794.2,3.37789,0,0,0,,
1552,1,SBT2050,2,3,,7,1817.3,3.92545,8.38,21.778,0,,
1552,1,SBT2050,2,3,,7,1840.3,4.03096,8.235,77.571,0,,
1552,1,SBT2050,2,3,,7,1863.4,4.03207,7.676,128.502,0,,
1552,1,SBT2050,2,3,,7,1886.4,4.01267,7.24,176.05,0,,
1552,1,SBT2050,2,3,,7,1909.5,3.99222,6.884,221.326,0,,
1552,1,SBT2050,2,3,,7,1932.5,3.97765,6.617,264.47,0,,
1552,1,SBT2050,2,3,,7,1955.5,3.96732,6.401,306.083,0,,
1552,1,SBT2050,2,3,,7,1978.6,3.96107,6.229,346.633,0,,
1552,1,SBT2050,2,3,,7,2001.6,3.95882,6.099,386.032,0,,
1552,1,SBT2050,2,3,,7,2024.7,3.95819,5.968,424.748,0,,
1552,1,SBT2050,2,3,,7,2047.7,3.959746,5.854,462.538,0,,
1552,1,SBT2050,2,3,,7,2070.8,3.96244,5.749,499.791,0,,
1552,1,SBT2050,2,3,,7,2093.8,3.96551,5.636,536.144,0,,
1552,1,SBT2050,2,3,,7,2116.9,3.96927,5.522,571.932,0,,
1552,1,SBT2050,2,3,,7,2139.9,3.97376,5.419,606.846,0,,
1552,1,SBT2050,2,3,,7,2162.9,3.97804,5.307,641.098,0,,
1552,1,SBT2050,2,3,,7,2186,3.98314,5.2,674.878,0,,
1552,1,SBT2050,2,3,,7,2209,3.98691,5.086,707.722,0,,
1552,1,SBT2050,2,3,,7,2232.1,3.99079,4.969,739.986,0,,
1552,1,SBT2050,2,3,,7,2255.1,3.99556,4.867,771.472,0,,
1552,1,SBT2050,2,3,,7,2278.2,3.999466,4.752,802.344,0,,
1552,1,SBT2050,2,3,,7,2301.2,4.00412,4.6463,832.378,0,,
1552,1,SBT2050,2,3,,7,2324.3,4.00776,4.5317,861.806,0,,
1552,1,SBT2050,2,3,,7,2347.3,4.01199,4.4228,890.432,0,,
1552,1,SBT2050,2,3,,7,2370.3,4.01641,4.3288,918.387,0,,
1552,1,SBT2050,2,3,,7,2393.4,4.02028,4.2234,945.808,0,,
1552,1,SBT2050,2,3,,7,2416.4,4.02573,4.1472,972.527,0,,
1552,1,SBT2050,2,3,,7,2439.5,4.032342,4.0902,998.939,0,,
1552,1,SBT2050,2,3,,7,2462.5,4.03887,4.0252,1024.851,0,,
1552,1,SBT2050,2,3,,7,2485.6,4.0448,3.9472,1050.439,0,,
1552,1,SBT2050,2,3,,7,2508.6,4.05085,3.8849,1075.472,0,,
1552,1,SBT2050,2,3,,7,2531.6,4.05675,3.8173,1100.109,0,,
1552,1,SBT2050,2,3,,7,2554.7,4.0627,3.7519,1124.409,0,,
1552,1,SBT2050,2,3,,7,2577.7,4.06853,3.6974,1148.216,0,,
1552,1,SBT2050,2,3,,7,2600.8,4.07463,3.6326,1171.711,0,,
1552,1,SBT2050,2,3,,7,2623.8,4.08001,3.5679,1194.731,0,,
1552,1,SBT2050,2,3,,7,2646.9,4.08526,3.5059,1217.431,0,,
1552,1,SBT2050,2,3,,7,2669.9,4.090258,3.442,1239.634,0,,
1552,1,SBT2050,2,3,,7,2693,4.09491,3.3814,1261.531,0,34.7,
1552,1,SBT2050,2,3,,7,2716,4.09996,3.3185,1282.924,0,,
1552,1,SBT2050,2,3,,7,2739,4.104,3.2505,1303.877,0,,
1552,1,SBT2050,2,3,,7,2762.1,4.107778,3.1727,1324.515,0,,
1552,1,SBT2050,2,3,,7,2785.1,4.11237,3.1174,1344.616,0,,
1552,1,SBT2050,2,3,,7,2808.2,4.11585,3.0465,1364.377,0,,
1552,1,SBT2050,2,3,,7,2831.2,4.11965,2.979,1383.656,0,,
1552,1,SBT2050,2,3,,7,2854.3,4.12338,2.9187,1402.593,0,,
1552,1,SBT2050,2,3,,7,2877.3,4.12842,2.8828,1421.128,0,,
1552,1,SBT2050,2,3,,7,2900.4,4.13266,2.8339,1439.456,0,,
1552,1,SBT2050,2,3,,7,2923.4,4.1381,2.7965,1457.421,0,,
1552,1,SBT2050,2,3,,7,2946.4,4.14196,2.745,1475.156,0,,
1552,1,SBT2050,2,3,,7,2969.5,4.14635,2.7023,1492.619,0,,
1552,1,SBT2050,2,3,,7,2992.5,4.15153,2.6749,1509.752,0,,
1552,1,SBT2050,2,3,,7,3015.6,4.15593,2.6256,1526.752,0,,
1552,1,SBT2050,2,3,,7,3038.6,4.15994,2.5753,1543.378,0,,
1552,1,SBT2050,2,3,,7,3061.7,4.165058,2.5462,1559.827,0,,
1552,1,SBT2050,2,3,,7,3084.7,4.16884,2.4952,1575.95,0,,
1552,1,SBT2050,2,3,,7,3107.701,4.17333,2.4645,1591.796,0,,
1552,1,SBT2050,2,3,,7,3130.8,4.17825,2.4345,1607.49,0,,
1552,1,SBT2050,2,3,,7,3153.8,4.18189,2.387,1622.887,0,,
1552,1,SBT2050,2,3,,7,3176.9,4.18609,2.3539,1638.105,0,,
1552,1,SBT2050,2,3,,7,3199.9,4.19075,2.3229,1653.022,0,,
1552,1,SBT2050,2,3,,7,3223,4.1954,2.292,1667.822,0,,
1552,1,SBT2050,2,3,,7,3246,4.199692,2.2568,1682.341,0,31,
1552,1,SBT2050,2,3,,7,3269.1,4.20389,2.2218,1696.709,0,,
1552,1,SBT2050,2,3,,7,3292.1,4.20744,2.1808,1710.768,0,,
1552,1,SBT2050,2,3,,7,3315.1,4.21146,2.1508,1724.631,0,,
1552,1,SBT2050,2,3,,7,3338.2,4.2153,2.118,1738.347,0,,
1552,1,SBT2050,2,3,,7,3361.2,4.219456,2.0859,1751.775,0,,
1552,1,SBT2050,2,3,,7,3384.3,4.22359,2.0552,1765.064,0,,
1552,1,SBT2050,2,3,,7,3407.3,4.22724,2.0232,1778.088,0,,
1552,1,SBT2050,2,3,,7,3430.4,4.23161,1.9933,1790.993,0,,
1552,1,SBT2050,2,3,,7,3453.4,4.235218,1.9613,1803.625,0,,
1552,1,SBT2050,2,3,,7,3476.5,4.23919,1.9344,1816.134,0,,
1552,1,SBT2050,2,3,,7,3499.5,4.24322,1.9031,1828.403,0,,
1552,1,SBT2050,2,3,,7,3522.5,4.24717,1.8812,1840.481,0,,
1552,1,SBT2050,2,3,,7,3545.6,4.25065,1.8509,1852.433,0,,
1552,1,SBT2050,2,3,,7,3568.6,4.25448,1.8206,1864.153,0,,
1552,1,SBT2050,2,3,,7,3591.7,4.25789,1.7902,1875.753,0,,
1552,1,SBT2050,2,3,,7,3614.7,4.26218,1.7651,1887.13,0,,
1552,1,SBT2050,2,3,,7,3637.8,4.26584,1.7371,1898.37,0,,
1552,1,SBT2050,2,3,,7,3660.8,4.27001,1.7133,1909.402,0,,
1552,1,SBT2050,2,3,,7,3683.829,4.27324,1.6838,1920.249,0,,
1552,1,SBT2050,2,3,,7,3706.9,4.27644,1.6541,1930.945,0,,
1552,1,SBT2050,2,3,,7,3729.9,4.28003,1.6252,1941.422,0,,
1552,1,SBT2050,2,3,,7,3753,4.284468,1.6079,1951.796,0,,
1552,1,SBT2050,2,3,,7,3776,4.28771,1.5812,1961.969,0,,
1552,1,SBT2050,2,3,,7,3799.1,4.29106,1.5524,1972.022,0,,
1552,1,SBT2050,2,3,,7,3822.1,4.295236,1.5325,1981.89,0,,
1552,1,SBT2050,2,3,,7,3845.2,4.29853,1.5088,1991.642,0,,
1552,1,SBT2050,2,3,,7,3868.2,4.302804,1.4943,2001.234,0,,
1552,1,SBT2050,2,3,,7,3891.2,4.3066,1.4658,2010.666,0,,
1552,1,SBT2050,2,3,,7,3914.3,4.30923,1.4374,2019.966,0,,
1552,1,SBT2050,2,3,,7,3937.3,4.31363,1.4245,2029.108,0,,
1552,1,SBT2050,2,3,,7,3960.4,4.31676,1.3966,2038.126,0,,
1552,1,SBT2050,2,3,,7,3983.4,4.32047,1.3744,2046.999,0,,
1552,1,SBT2050,2,3,,7,4006.5,4.32413,1.3559,2055.745,0,,
1552,1,SBT2050,2,3,,7,4029.5,4.327472,1.3293,2064.333,0,,
1552,1,SBT2050,2,3,,7,4052.6,4.33161,1.3167,2072.82,0,,
1552,1,SBT2050,2,3,,7,4075.6,4.33435,1.2903,2081.134,0,,
1552,1,SBT2050,2,3,,7,4098.6,4.33876,1.2786,2089.338,0,,
1552,1,SBT2050,2,3,,7,4121.7,4.34164,1.2517,2097.443,0,,
1552,1,SBT2050,2,3,,7,4144.7,4.34586,1.2403,2105.405,0,,
1552,1,SBT2050,2,3,,7,4167.8,4.34818,1.2148,2113.278,0,,
1552,1,SBT2050,2,3,,7,4190.8,4.353094,1.2037,2121.003,0,,
1552,1,SBT2050,2,3,,7,4213.9,4.35715,1.1852,2128.674,0,,
1552,1,SBT2050,2,3,,7,4236.9,4.36037,1.1674,2136.174,0,,
1552,1,SBT2050,2,3,,7,4259.957,4.36462,1.157,2143.618,0,,
1552,1,SBT2050,2,3,,7,4283,4.36779,1.133,2150.932,0,,
1552,1,SBT2050,2,3,,7,4306,4.371666,1.1215,2158.132,0,,
1552,1,SBT2050,2,3,,7,4329.1,4.37418,1.0972,2165.241,0,,
1552,1,SBT2050,2,3,,7,4352.1,4.37808,1.0877,2172.221,0,,
1552,1,SBT2050,2,3,,7,4375.2,4.38289,1.0776,2179.168,0,,
1552,1,SBT2050,2,3,,7,4398.2,4.385818,1.0572,2185.964,0,,
1552,1,SBT2050,2,3,,7,4421.3,4.38953,1.0444,2192.699,0,,
1552,1,SBT2050,2,3,,7,4444.3,4.39369,1.0347,2199.34,0,,
1552,1,SBT2050,2,3,,7,4467.3,4.396414,1.0117,2205.879,0,,
1552,1,SBT2050,2,3,,7,4487.225,4.400012,1.0033,2211.454,0,,