File: ORRG/Test1549.csv
Request Year:,2018,,,,,,,,,,,,
Test:,1549,,,,,,,,,,,,
Test Description:,,,,,,,,,,,,,
TestRegime Name:,Aging_test caseB_1,,,,,,,,,,,,
TestRegime Suffix:,SHP_LC,,,,,,,,,,,,
TestRegime CellSize:,18650,,,,,,,,,,,,
TestRegime Version:,3,,,,,,,,,,,,
Number Of Cells:,1,,,,,,,,,,,,
LotID:,,,,,,,,,,,,,
Lot Description:,,,,,,,,,,,,,
Date Made:,1/21/2003 12:00 AM,,,,,,,,,,,,
Origin:,Other,,,,,,,,,,,,
Requestor:,Admin,,,,,,,,,,,,
Product ID:,Default product,,,,,,,,,,,,
Storage Temp:,R.T./AMB,,,,,,,,,,,,
Storage Delay:,0 days,,,,,,,,,,,,
Test Temp:,R.T./AMB,,,,,,,,,,,,
Start Time:,4/25/2018 2:23 AM,,,,,,,,,,,,
End Time:,4/25/2018 3:39 AM,,,,,,,,,,,,
Operator Instructions:,,,,,,,,,,,,,
Test,Cell,Rack,Shelf,Position,Cell ID,Step,Total Time (Seconds),Voltage (V),Current (A),Charge Capacity (mAh),Discharge Capacity (mAh),Trs (Â°C),
1549,1,SBT2050,2,3,,0,0.1,3.37898,0,0,0,,
1549,1,SBT2050,2,3,,0,23.9,3.3792,0,0,0,,
1549,1,SBT2050,2,3,,0,47.7,3.37922,0,0,0,,
1549,1,SBT2050,2,3,,0,71.5,3.379304,0,0,0,,
1549,1,SBT2050,2,3,,0,95.3,3.3792,0,0,0,,
1549,1,SBT2050,2,3,,0,119.1,3.37943,0,0,0,,
1549,1,SBT2050,2,3,,0,142.9,3.37936,0,0,0,,
1549,1,SBT2050,2,3,,0,166.7,3.379642,0,0,0,,
1549,1,SBT2050,2,3,,0,190.5,3.37948,0,0,0,,
1549,1,SBT2050,2,3,,0,214.3,3.37964,0,0,0,,
1549,1,SBT2050,2,3,,0,238.1,3.37964,0,0,0,,
1549,1,SBT2050,2,3,,0,261.9,3.37984,0,0,0,,
1549,1,SBT2050,2,3,,0,285.7,3.37979,0,0,0,,
1549,1,SBT2050,2,3,,0,309.5,3.37983,0,0,0,,
1549,1,SBT2050,2,3,,0,333.3,3.37994,0,0,0,,
1549,1,SBT2050,2,3,,0,357.1,3.37977,0,0,0,,
1549,1,SBT2050,2,3,,0,380.9,3.37999,0,0,0,,
1549,1,SBT2050,2,3,,0,404.7,3.38019,0,0,0,,
1549,1,SBT2050,2,3,,0,428.5,3.38031,0,0,0,,
1549,1,SBT2050,2,3,,0,452.3,3.3802,0,0,0,,
1549,1,SBT2050,2,3,,0,476.1,3.38018,0,0,0,,
1549,1,SBT2050,2,3,,0,499.9,3.380308,0,0,0,,
1549,1,SBT2050,2,3,,0,523.7,3.38034,0,0,0,,
1549,1,SBT2050,2,3,,0,547.5,3.380132,0,0,0,,
1549,1,SBT2050,2,3,,0,571.3,3.380438,0,0,0,,
1549,1,SBT2050,2,3,,0,595.1,3.380512,0,0,0,,
1549,1,SBT2050,2,3,,0,618.9,3.38058,0,0,0,,
1549,1,SBT2050,2,3,,0,642.7,3.380628,0,0,0,,
1549,1,SBT2050,2,3,,0,666.5,3.38086,0,0,0,,
1549,1,SBT2050,2,3,,0,690.3,3.38064,0,0,0,,
1549,1,SBT2050,2,3,,0,714.1,3.38081,0,0,0,,
1549,1,SBT2050,2,3,,0,737.9,3.38067,0,0,0,,
1549,1,SBT2050,2,3,,0,761.7,3.381064,0,0,0,,
1549,1,SBT2050,2,3,,0,785.5,3.380882,0,0,0,,
1549,1,SBT2050,2,3,,0,809.3,3.38092,0,0,0,,
1549,1,SBT2050,2,3,,0,833.1,3.38097,0,0,0,,
1549,1,SBT2050,2,3,,0,856.9,3.38138,0,0,0,,
1549,1,SBT2050,2,3,,0,880.7,3.38111,0,0,0,,
1549,1,SBT2050,2,3,,0,904.5,3.38099,0,0,0,,
1549,1,SBT2050,2,3,,0,928.3,3.38134,0,0,0,,
1549,1,SBT2050,2,3,,0,952.1,3.38128,0,0,0,,
1549,1,SBT2050,2,3,,0,975.9,3.38148,0,0,0,,
1549,1,SBT2050,2,3,,0,999.7,3.381326,0,0,0,,
1549,1,SBT2050,2,3,,0,1023.5,3.38161,0,0,0,,
1549,1,SBT2050,2,3,,0,1047.3,3.381662,0,0,0,,
1549,1,SBT2050,2,3,,0,1071.1,3.38108,0,0,0,,
1549,1,SBT2050,2,3,,0,1094.9,3.38143,0,0,0,,
1549,1,SBT2050,2,3,,0,1118.7,3.381652,0,0,0,,
1549,1,SBT2050,2,3,,0,1142.5,3.3819,0,0,0,,
1549,1,SBT2050,2,3,,0,1166.3,3.38188,0,0,0,,
1549,1,SBT2050,2,3,,0,1190.1,3.38172,0,0,0,,
1549,1,SBT2050,2,3,,0,1213.9,3.38172,0,0,0,,
1549,1,SBT2050,2,3,,0,1237.7,3.38189,0,0,0,,
1549,1,SBT2050,2,3,,0,1261.5,3.38217,0,0,0,,
1549,1,SBT2050,2,3,,0,1285.3,3.3821,0,0,0,,
1549,1,SBT2050,2,3,,0,1309.1,3.38221,0,0,0,,
1549,1,SBT2050,2,3,,0,1332.9,3.38208,0,0,0,,
1549,1,SBT2050,2,3,,0,1356.7,3.38206,0,0,0,,
1549,1,SBT2050,2,3,,0,1380.5,3.38221,0,0,0,,
1549,1,SBT2050,2,3,,0,1404.3,3.38209,0,0,0,,
1549,1,SBT2050,2,3,,0,1428.1,3.38217,0,0,0,,
1549,1,SBT2050,2,3,,0,1451.9,3.3824,0,0,0,,
1549,1,SBT2050,2,3,,0,1475.7,3.38236,0,0,0,,
1549,1,SBT2050,2,3,,0,1499.5,3.38259,0,0,0,,
1549,1,SBT2050,2,3,,0,1523.3,3.38255,0,0,0,,
1549,1,SBT2050,2,3,,0,1547.1,3.382446,0,0,0,,
1549,1,SBT2050,2,3,,0,1570.9,3.3824,0,0,0,,
1549,1,SBT2050,2,3,,0,1594.7,3.382384,0,0,0,,
1549,1,SBT2050,2,3,,0,1618.5,3.382452,0,0,0,,
1549,1,SBT2050,2,3,,0,1642.3,3.382758,0,0,0,,
1549,1,SBT2050,2,3,,0,1666.1,3.38249,0,0,0,,
1549,1,SBT2050,2,3,,0,1689.9,3.38282,0,0,0,,
1549,1,SBT2050,2,3,,0,1713.7,3.38278,0,0,0,,
1549,1,SBT2050,2,3,,0,1737.5,3.38268,0,0,0,,
1549,1,SBT2050,2,3,,0,1761.3,3.382544,0,0,0,,
1549,1,SBT2050,2,3,,0,1785.1,3.382762,0,0,0,,
1549,1,SBT2050,2,3,,7,1808.8,3.71874,5.185,4.68,0,,
1549,1,SBT2050,2,3,,7,1832.3,4.030562,8.542,58.18,0,,
1549,1,SBT2050,2,3,,7,1855.9,4.04271,7.829,111.525,0,,
1549,1,SBT2050,2,3,,7,1879.4,4.02537,7.358,161.065,0,,
1549,1,SBT2050,2,3,,7,1902.9,4.003574,6.967,207.799,0,,
1549,1,SBT2050,2,3,,7,1926.5,3.986924,6.68,252.525,0,,
1549,1,SBT2050,2,3,,7,1950,3.97515,6.448,295.362,0,35.2,
1549,1,SBT2050,2,3,,7,1973.6,3.96785,6.258,337.001,0,,
1549,1,SBT2050,2,3,,7,1997.1,3.96399,6.1,377.371,0,,
1549,1,SBT2050,2,3,,7,2020.6,3.96324,5.977,416.765,0,,
1549,1,SBT2050,2,3,,7,2044.2,3.9643,5.857,455.503,0,,
1549,1,SBT2050,2,3,,7,2067.7,3.96598,5.728,493.295,0,,
1549,1,SBT2050,2,3,,7,2091.2,3.96914,5.627,530.32,0,,
1549,1,SBT2050,2,3,,7,2114.8,3.97335,5.517,566.865,0,,
1549,1,SBT2050,2,3,,7,2138.3,3.97743,5.406,602.54,0,,
1549,1,SBT2050,2,3,,7,2161.9,3.9816,5.296,637.67,0,,
1549,1,SBT2050,2,3,,7,2185.4,3.98626,5.191,671.927,0,,
1549,1,SBT2050,2,3,,7,2208.9,3.990428,5.08,705.469,0,,
1549,1,SBT2050,2,3,,7,2232.5,3.99449,4.965,738.361,0,,
1549,1,SBT2050,2,3,,7,2256,3.99849,4.848,770.363,0,,
1549,1,SBT2050,2,3,,7,2279.6,4.00294,4.7403,801.789,0,,
1549,1,SBT2050,2,3,,7,2303.1,4.00692,4.6177,832.283,0,,
1549,1,SBT2050,2,3,,7,2326.6,4.01143,4.5084,862.098,0,,
1549,1,SBT2050,2,3,,7,2350.2,4.01552,4.397,891.3,0,,
1549,1,SBT2050,2,3,,7,2373.7,4.01958,4.2911,919.644,0,,
1549,1,SBT2050,2,3,,7,2397.2,4.02396,4.1915,947.311,0,,
1549,1,SBT2050,2,3,,7,2420.8,4.03008,4.1246,974.563,0,,
1549,1,SBT2050,2,3,,7,2444.3,4.03674,4.0572,1001.28,0,,
1549,1,SBT2050,2,3,,7,2467.9,4.04295,3.9896,1027.654,0,,
1549,1,SBT2050,2,3,,7,2491.4,4.04935,3.9237,1053.484,0,,
1549,1,SBT2050,2,3,,7,2514.9,4.05583,3.8564,1078.902,0,,
1549,1,SBT2050,2,3,,7,2538.5,4.06173,3.7902,1103.967,0,,
1549,1,SBT2050,2,3,,7,2562,4.06746,3.7228,1128.496,0,35.6,
1549,1,SBT2050,2,3,,7,2585.6,4.07322,3.6565,1152.671,0,,
1549,1,SBT2050,2,3,,7,2609.1,4.07909,3.5925,1176.354,0,,
1549,1,SBT2050,2,3,,7,2632.6,4.08432,3.5299,1199.613,0,,
1549,1,SBT2050,2,3,,7,2656.2,4.089642,3.4664,1222.554,0,,
1549,1,SBT2050,2,3,,7,2679.7,4.09486,3.4036,1244.969,0,,
1549,1,SBT2050,2,3,,7,2703.2,4.09893,3.3234,1266.938,0,,
1549,1,SBT2050,2,3,,7,2726.8,4.1041,3.2704,1288.561,0,,
1549,1,SBT2050,2,3,,7,2750.3,4.10815,3.2009,1309.64,0,,
1549,1,SBT2050,2,3,,7,2773.9,4.1122,3.1313,1330.397,0,,
1549,1,SBT2050,2,3,,7,2797.4,4.11547,3.0576,1350.607,0,,
1549,1,SBT2050,2,3,,7,2820.9,4.1193,2.9896,1370.338,0,,
1549,1,SBT2050,2,3,,7,2844.5,4.122794,2.9238,1389.722,0,,
1549,1,SBT2050,2,3,,7,2868,4.12695,2.8672,1408.64,0,,
1549,1,SBT2050,2,3,,7,2891.6,4.13143,2.8243,1427.323,0,,
1549,1,SBT2050,2,3,,7,2915.1,4.13639,2.7862,1445.622,0,,
1549,1,SBT2050,2,3,,7,2938.6,4.140922,2.7434,1463.634,0,,
1549,1,SBT2050,2,3,,7,2962.2,4.14526,2.6906,1481.418,0,,
1549,1,SBT2050,2,3,,7,2985.7,4.149746,2.6448,1498.834,0,,
1549,1,SBT2050,2,3,,7,3009.2,4.15491,2.6121,1516.011,0,,
1549,1,SBT2050,2,3,,7,3032.8,4.159316,2.568,1532.979,0,,
1549,1,SBT2050,2,3,,7,3056.3,4.1643,2.5393,1549.664,0,,
1549,1,SBT2050,2,3,,7,3079.9,4.1686,2.4929,1566.155,0,,
1549,1,SBT2050,2,3,,7,3103.4,4.17329,2.4598,1582.341,0,,
1549,1,SBT2050,2,3,,7,3126.9,4.177,2.4155,1598.237,0,,
1549,1,SBT2050,2,3,,7,3150.5,4.18118,2.3766,1613.945,0,,
1549,1,SBT2050,2,3,,7,3174,4.1859,2.3447,1629.356,0,,
1549,1,SBT2050,2,3,,7,3197.6,4.1897,2.3046,1644.579,0,,
1549,1,SBT2050,2,3,,7,3221.1,4.19398,2.2653,1659.503,0,,
1549,1,SBT2050,2,3,,7,3244.6,4.197822,2.2283,1674.188,0,,
1549,1,SBT2050,2,3,,7,3268.2,4.20202,2.1967,1688.681,0,,
1549,1,SBT2050,2,3,,7,3291.7,4.20576,2.1574,1702.895,0,,
1549,1,SBT2050,2,3,,7,3315.2,4.20997,2.1299,1716.911,0,,
1549,1,SBT2050,2,3,,7,3338.8,4.21445,2.1027,1730.787,0,,
1549,1,SBT2050,2,3,,7,3362.3,4.21803,2.0664,1744.397,0,,
1549,1,SBT2050,2,3,,7,3385.9,4.22236,2.0365,1757.853,0,,
1549,1,SBT2050,2,3,,7,3409.4,4.22588,2.0028,1771.017,0,,
1549,1,SBT2050,2,3,,7,3432.9,4.22966,1.9679,1783.987,0,,
1549,1,SBT2050,2,3,,7,3456.5,4.23354,1.9367,1796.802,0,,
1549,1,SBT2050,2,3,,7,3480,4.23717,1.9054,1809.366,0,29.7,
1549,1,SBT2050,2,3,,7,3503.6,4.24113,1.8775,1821.785,0,,
1549,1,SBT2050,2,3,,7,3527.1,4.24499,1.8509,1833.95,0,,
1549,1,SBT2050,2,3,,7,3550.6,4.24907,1.825,1845.939,0,,
1549,1,SBT2050,2,3,,7,3574.2,4.25251,1.7935,1857.802,0,,
1549,1,SBT2050,2,3,,7,3597.7,4.256124,1.763,1869.403,0,,
1549,1,SBT2050,2,3,,7,3621.2,4.259278,1.7335,1880.838,0,,
1549,1,SBT2050,2,3,,7,3644.8,4.26337,1.7129,1892.134,0,,
1549,1,SBT2050,2,3,,7,3668.3,4.26673,1.6859,1903.202,0,,
1549,1,SBT2050,2,3,,7,3691.9,4.27027,1.6564,1914.159,0,,
1549,1,SBT2050,2,3,,7,3715.4,4.27333,1.6264,1924.887,0,,
1549,1,SBT2050,2,3,,7,3738.9,4.27657,1.5994,1935.436,0,,
1549,1,SBT2050,2,3,,7,3762.5,4.28046,1.577,1945.847,0,,
1549,1,SBT2050,2,3,,7,3786,4.28402,1.5514,1956.053,0,,
1549,1,SBT2050,2,3,,7,3809.6,4.28747,1.5287,1966.167,0,,
1549,1,SBT2050,2,3,,7,3833.1,4.29128,1.4996,1976.05,0,,
1549,1,SBT2050,2,3,,7,3856.6,4.294516,1.4789,1985.757,0,,
1549,1,SBT2050,2,3,,7,3880.2,4.29784,1.4575,1995.4,0,,
1549,1,SBT2050,2,3,,7,3903.7,4.30144,1.4359,2004.827,0,,
1549,1,SBT2050,2,3,,7,3927.2,4.30417,1.4078,2014.092,0,,
1549,1,SBT2050,2,3,,7,3950.8,4.30819,1.3911,2023.26,0,,
1549,1,SBT2050,2,3,,7,3974.3,4.311482,1.3665,2032.242,0,,
1549,1,SBT2050,2,3,,7,3997.9,4.31437,1.3407,2041.134,0,,
1549,1,SBT2050,2,3,,7,4021.4,4.31832,1.3261,2049.834,0,,
1549,1,SBT2050,2,3,,7,4044.9,4.32144,1.3028,2058.396,0,,
1549,1,SBT2050,2,3,,7,4068.5,4.32546,1.287,2066.876,0,,
1549,1,SBT2050,2,3,,7,4092,4.32845,1.2598,2075.193,0,,
1549,1,SBT2050,2,3,,7,4115.6,4.332548,1.2481,2083.411,0,,
1549,1,SBT2050,2,3,,7,4139.1,4.33569,1.2248,2091.511,0,,
1549,1,SBT2050,2,3,,7,4162.6,4.33895,1.2104,2099.452,0,,
1549,1,SBT2050,2,3,,7,4186.2,4.342,1.1855,2107.324,0,,
1549,1,SBT2050,2,3,,7,4209.7,4.34587,1.1736,2115.02,0,,
1549,1,SBT2050,2,3,,7,4233.251,4.35,1.1624,2122.663,0,,
1549,1,SBT2050,2,3,,7,4256.8,4.35263,1.1381,2130.177,0,,
1549,1,SBT2050,2,3,,7,4280.3,4.3566,1.1268,2137.567,0,,
1549,1,SBT2050,2,3,,7,4303.9,4.36056,1.1163,2144.919,0,,
1549,1,SBT2050,2,3,,7,4327.4,4.36304,1.0912,2152.114,0,,
1549,1,SBT2050,2,3,,7,4350.9,4.36683,1.0812,2159.205,0,,
1549,1,SBT2050,2,3,,7,4374.5,4.36978,1.0583,2166.234,0,,
1549,1,SBT2050,2,3,,7,4398,4.37351,1.0473,2173.103,0,,
1549,1,SBT2050,2,3,,7,4421.6,4.377736,1.0374,2179.936,0,,
1549,1,SBT2050,2,3,,7,4445.1,4.38045,1.0151,2186.656,0,,
1549,1,SBT2050,2,3,,7,4468.6,4.384042,1.0043,2193.245,0,,
1549,1,SBT2050,2,3,,7,4492.2,4.38797,0.9944,2199.797,0,,
1549,1,SBT2050,2,3,,7,4515.7,4.39192,0.9843,2206.256,0,,
1549,1,SBT2050,2,3,,7,4539.3,4.39562,0.9708,2212.663,0,,
1549,1,SBT2050,2,3,,7,4562.8,4.39858,0.9527,2218.923,0,,
1549,1,SBT2050,2,3,,7,4569.894,4.40003,0.9497,2220.798,0,,