File: ORRG/Test1482.csv
Request Year:,2018,,,,,,,,,,,,
Test:,1482,,,,,,,,,,,,
Test Description:,,,,,,,,,,,,,
TestRegime Name:,Aging_Performance,,,,,,,,,,,,
TestRegime Suffix:,SHP_LC,,,,,,,,,,,,
TestRegime CellSize:,18650,,,,,,,,,,,,
TestRegime Version:,1,,,,,,,,,,,,
Number Of Cells:,1,,,,,,,,,,,,
LotID:,,,,,,,,,,,,,
Lot Description:,,,,,,,,,,,,,
Date Made:,1/21/2003 12:00 AM,,,,,,,,,,,,
Origin:,Other,,,,,,,,,,,,
Requestor:,Admin,,,,,,,,,,,,
Product ID:,Default product,,,,,,,,,,,,
Storage Temp:,R.T./AMB,,,,,,,,,,,,
Storage Delay:,0 days,,,,,,,,,,,,
Test Temp:,R.T./AMB,,,,,,,,,,,,
Start Time:,4/9/2018 3:38 PM,,,,,,,,,,,,
End Time:,4/9/2018 10:45 PM,,,,,,,,,,,,
Operator Instructions:,,,,,,,,,,,,,
Test,Cell,Rack,Shelf,Position,Cell ID,Step,Total Time (Seconds),Voltage (V),Current (A),Charge Capacity (mAh),Discharge Capacity (mAh),TC1 (Â°C),
1482,1,SBT2050,2,3,,0,1,3.33872,0,0,0,24.9,
1482,1,SBT2050,2,3,,0,168,3.33855,0,0,0,25.2,
1482,1,SBT2050,2,3,,1,335,2.49937,-1.8833,0,25.488,26.3,
1482,1,SBT2050,2,3,,1,502,2.500051,-0.9956,0,85.44,29,
1482,1,SBT2050,2,3,,1,669,2.49965,-0.6555,0,122.939,29.2,
1482,1,SBT2050,2,3,,1,836,2.499896,-0.45716,0,148.414,28.7,
1482,1,SBT2050,2,3,,1,1003,2.49993,-0.33357,0,166.527,28,
1482,1,SBT2050,2,3,,1,1170,2.49986,-0.25383,0,180.032,27.4,
1482,1,SBT2050,2,3,,1,1337,2.499753,-0.1974,0,190.437,26.8,
1482,1,SBT2050,2,3,,1,1504,2.49999,-0.15426,0,198.566,26.4,
1482,1,SBT2050,2,3,,1,1671,2.49986,-0.12083,0,204.918,26.2,
1482,1,SBT2050,2,3,,1,1838,2.49982,-0.09186,0,209.841,25.9,
1482,1,SBT2050,2,3,,1,2005,2.49997,-0.06574,0,213.49,25.8,
1482,1,SBT2050,2,3,,1,2172,2.49996,-0.043923,0,216.016,25.7,
1482,1,SBT2050,2,3,,1,2339,2.49988,-0.028292,0,217.661,25.6,
1482,1,SBT2050,2,3,,1,2506,2.50013,-0.019503,0,218.743,25.5,
1482,1,SBT2050,2,3,,1,2673,2.50011,-0.015161,0,219.533,25.4,
1482,1,SBT2050,2,3,,1,2840,2.50015,-0.012675,0,220.173,25.4,
1482,1,SBT2050,2,3,,1,3007,2.49993,-0.011158,0,220.725,25.4,
1482,1,SBT2050,2,3,,1,3174,2.50009,-0.010311,0,221.224,25.4,
1482,1,SBT2050,2,3,,2,3340,3.58212,2.936,112.579,221.304,26.4,
1482,1,SBT2050,2,3,,2,3507,3.62421,2.9359,248.775,221.304,28.2,
1482,1,SBT2050,2,3,,2,3674,3.65988,2.936,384.971,221.304,29.2,
1482,1,SBT2050,2,3,,2,3841,3.685104,2.9361,521.166,221.304,29.5,
1482,1,SBT2050,2,3,,2,4008,3.710198,2.9357,657.362,221.304,29.6,
1482,1,SBT2050,2,3,,2,4175,3.739264,2.9359,793.558,221.304,29.6,
1482,1,SBT2050,2,3,,2,4342,3.76838,2.9359,929.754,221.304,29.6,
1482,1,SBT2050,2,3,,2,4509,3.79963,2.936,1065.95,221.304,29.6,
1482,1,SBT2050,2,3,,2,4676,3.8349,2.9363,1202.146,221.304,29.7,
1482,1,SBT2050,2,3,,2,4843,3.87525,2.9358,1338.342,221.304,29.8,
1482,1,SBT2050,2,3,,2,5010,3.92009,2.9361,1474.538,221.304,30,
1482,1,SBT2050,2,3,,2,5177,3.96714,2.9359,1610.734,221.304,30.1,
1482,1,SBT2050,2,3,,2,5344,4.01547,2.9356,1746.93,221.304,30.2,
1482,1,SBT2050,2,3,,2,5511,4.06416,2.9359,1883.126,221.304,30.4,
1482,1,SBT2050,2,3,,2,5678,4.11233,2.9357,2019.321,221.304,30.4,
1482,1,SBT2050,2,3,,2,5845,4.1502,2.7115,2154.23,221.304,30.5,
1482,1,SBT2050,2,3,,2,6012,4.150072,2.0245,2263.431,221.304,29.9,
1482,1,SBT2050,2,3,,2,6179,4.15004,1.5167,2344.987,221.304,29,
1482,1,SBT2050,2,3,,2,6346,4.14991,1.1604,2406.576,221.304,28.1,
1482,1,SBT2050,2,3,,2,6513,4.15002,0.9143,2454.392,221.304,27.4,
1482,1,SBT2050,2,3,,2,6680,4.14994,0.7451,2492.686,221.304,26.9,
1482,1,SBT2050,2,3,,2,6847,4.15024,0.62,2524.231,221.304,26.6,
1482,1,SBT2050,2,3,,2,7014,4.150096,0.5275,2550.762,221.304,26.2,
1482,1,SBT2050,2,3,,2,7181,4.150394,0.45649,2573.511,221.304,26.1,
1482,1,SBT2050,2,3,,2,7348,4.15014,0.39964,2593.312,221.304,25.9,
1482,1,SBT2050,2,3,,2,7515,4.14995,0.35677,2610.821,221.304,25.8,
1482,1,SBT2050,2,3,,2,7682,4.15004,0.31933,2626.47,221.304,25.7,
1482,1,SBT2050,2,3,,2,7849,4.15014,0.28897,2640.57,221.304,25.7,
1482,1,SBT2050,2,3,,2,8016,4.150132,0.26249,2653.374,221.304,25.6,
1482,1,SBT2050,2,3,,2,8183,4.150108,0.24028,2665.045,221.304,25.6,
1482,1,SBT2050,2,3,,2,8350,4.14986,0.22063,2675.718,221.304,25.5,
1482,1,SBT2050,2,3,,2,8517,4.14999,0.20176,2685.504,221.304,25.5,
1482,1,SBT2050,2,3,,2,8684,4.15022,0.18445,2694.474,221.304,25.5,
1482,1,SBT2050,2,3,,2,8851,4.149774,0.16939,2702.678,221.304,25.4,
1482,1,SBT2050,2,3,,2,9018,4.150108,0.15574,2710.209,221.304,25.4,
1482,1,SBT2050,2,3,,2,9185,4.1503,0.1426,2717.113,221.304,25.4,
1482,1,SBT2050,2,3,,2,9352,4.150072,0.13074,2723.461,221.304,25.4,
1482,1,SBT2050,2,3,,2,9519,4.15012,0.12079,2729.306,221.304,25.4,
1482,1,SBT2050,2,3,,2,9686,4.15006,0.1112,2734.702,221.304,25.4,
1482,1,SBT2050,2,3,,2,9853,4.14964,0.10305,2739.678,221.304,25.3,
1482,1,SBT2050,2,3,,2,10020,4.15016,0.09504,2744.273,221.304,25.4,
1482,1,SBT2050,2,3,,2,10187,4.150072,0.08825,2748.531,221.304,25.3,
1482,1,SBT2050,2,3,,2,10354,4.15001,0.08163,2752.474,221.304,25.3,
1482,1,SBT2050,2,3,,2,10521,4.15012,0.07576,2756.121,221.304,25.3,
1482,1,SBT2050,2,3,,2,10688,4.14982,0.07001,2759.528,221.304,25.3,
1482,1,SBT2050,2,3,,2,10855,4.14986,0.0659,2762.687,221.304,25.3,
1482,1,SBT2050,2,3,,2,11022,4.15,0.06089,2765.624,221.304,25.3,
1482,1,SBT2050,2,3,,2,11189,4.14999,0.05612,2768.346,221.304,25.3,
1482,1,SBT2050,2,3,,2,11356,4.15002,0.05322,2770.896,221.304,25.3,
1482,1,SBT2050,2,3,,2,11523,4.15026,0.04984,2773.286,221.304,25.2,
1482,1,SBT2050,2,3,,2,11690,4.15005,0.046916,2775.513,221.304,25.3,
1482,1,SBT2050,2,3,,2,11857,4.14987,0.043438,2777.591,221.304,25.3,
1482,1,SBT2050,2,3,,2,12024,4.15012,0.040963,2779.542,221.304,25.3,
1482,1,SBT2050,2,3,,2,12191,4.15017,0.037342,2781.386,221.304,25.3,
1482,1,SBT2050,2,3,,2,12358,4.15,0.035667,2783.091,221.304,25.3,
1482,1,SBT2050,2,3,,2,12525,4.14989,0.033699,2784.699,221.304,25.3,
1482,1,SBT2050,2,3,,2,12692,4.14999,0.031677,2786.199,221.304,25.3,
1482,1,SBT2050,2,3,,2,12859,4.15004,0.028746,2787.621,221.304,25.3,
1482,1,SBT2050,2,3,,2,13026,4.14973,0.028294,2788.943,221.304,25.3,
1482,1,SBT2050,2,3,,2,13193,4.14995,0.026243,2790.199,221.304,25.2,
1482,1,SBT2050,2,3,,2,13360,4.150132,0.024256,2791.372,221.304,25.2,
1482,1,SBT2050,2,3,,2,13527,4.14995,0.023414,2792.474,221.304,25.3,
1482,1,SBT2050,2,3,,2,13694,4.149786,0.021631,2793.511,221.304,25.2,
1482,1,SBT2050,2,3,,2,13861,4.150084,0.020299,2794.495,221.304,25.3,
1482,1,SBT2050,2,3,,2,14028,4.14974,0.019509,2795.423,221.304,25.3,
1482,1,SBT2050,2,3,,2,14195,4.15002,0.018207,2796.292,221.304,25.2,
1482,1,SBT2050,2,3,,2,14362,4.15016,0.018145,2797.122,221.304,25.2,
1482,1,SBT2050,2,3,,2,14529,4.150072,0.016463,2797.916,221.304,25.3,
1482,1,SBT2050,2,3,,2,14696,4.15018,0.015497,2798.658,221.304,25.3,
1482,1,SBT2050,2,3,,2,14863,4.14987,0.014996,2799.361,221.304,25.3,
1482,1,SBT2050,2,3,,2,15030,4.150096,0.014529,2800.037,221.304,25.3,
1482,1,SBT2050,2,3,,2,15197,4.14963,0.013498,2800.685,221.304,25.3,
1482,1,SBT2050,2,3,,2,15364,4.15016,0.012581,2801.303,221.304,25.2,
1482,1,SBT2050,2,3,,2,15531,4.150084,0.011466,2801.883,221.304,25.3,
1482,1,SBT2050,2,3,,2,15698,4.150132,0.011029,2802.44,221.304,25.3,
1482,1,SBT2050,2,3,,2,15865,4.150108,0.01061,2802.953,221.304,25.3,
1482,1,SBT2050,2,3,,2,16032,4.15017,0.010079,2803.464,221.304,25.3,
1482,1,SBT2050,2,3,,3,16198,4.14792,0,2803.465,221.304,25.2,
1482,1,SBT2050,2,3,,3,16365,4.14782,0,2803.465,221.304,25.3,
1482,1,SBT2050,2,3,,3,16532,4.1472,0,2803.465,221.304,25.2,
1482,1,SBT2050,2,3,,3,16699,4.14726,0,2803.465,221.304,25.3,
1482,1,SBT2050,2,3,,3,16866,4.14695,0,2803.465,221.304,25.3,
1482,1,SBT2050,2,3,,3,17033,4.14695,0,2803.465,221.304,25.3,
1482,1,SBT2050,2,3,,3,17200,4.146618,0,2803.465,221.304,25.2,
1482,1,SBT2050,2,3,,3,17367,4.1462,0,2803.465,221.304,25.3,
1482,1,SBT2050,2,3,,3,17534,4.14644,0,2803.465,221.304,25.2,
1482,1,SBT2050,2,3,,3,17701,4.1461,0,2803.465,221.304,25.3,
1482,1,SBT2050,2,3,,4,17867,3.878408,-2.9355,2803.465,249.667,25.6,
1482,1,SBT2050,2,3,,4,18034,3.82871,-2.936,2803.465,385.863,27.5,
1482,1,SBT2050,2,3,,4,18201,3.80316,-2.9359,2803.465,522.058,28.5,
1482,1,SBT2050,2,3,,4,18368,3.766048,-2.9364,2803.465,658.254,28.8,
1482,1,SBT2050,2,3,,4,18535,3.72439,-2.936,2803.465,794.449,28.8,
1482,1,SBT2050,2,3,,4,18702,3.68163,-2.9359,2803.465,930.644,28.8,
1482,1,SBT2050,2,3,,4,18869,3.63707,-2.9362,2803.465,1066.84,28.8,
1482,1,SBT2050,2,3,,4,19036,3.58916,-2.9361,2803.465,1203.035,28.9,
1482,1,SBT2050,2,3,,4,19203,3.54031,-2.9359,2803.465,1339.231,28.9,
1482,1,SBT2050,2,3,,4,19370,3.49279,-2.9358,2803.465,1475.426,29,
1482,1,SBT2050,2,3,,4,19537,3.44836,-2.9357,2803.465,1611.622,29.1,
1482,1,SBT2050,2,3,,4,19704,3.40799,-2.9359,2803.465,1747.817,29.2,
1482,1,SBT2050,2,3,,4,19871,3.36822,-2.9359,2803.465,1884.013,29.3,
1482,1,SBT2050,2,3,,4,20038,3.32611,-2.9362,2803.465,2020.209,29.5,
1482,1,SBT2050,2,3,,4,20205,3.27757,-2.9362,2803.465,2156.405,29.8,
1482,1,SBT2050,2,3,,4,20372,3.216294,-2.9359,2803.465,2292.601,30.1,
1482,1,SBT2050,2,3,,4,20539,3.131565,-2.936,2803.465,2428.796,30.7,
1482,1,SBT2050,2,3,,4,20706,3.00629,-2.9359,2803.465,2564.992,31.6,
1482,1,SBT2050,2,3,,4,20873,2.79111,-2.9358,2803.465,2701.187,33.1,
1482,1,SBT2050,2,3,,4,21040,2.4998,-2.2619,2803.465,2831.709,35.8,
1482,1,SBT2050,2,3,,4,21207,2.49975,-1.1809,2803.465,2908.901,35.2,
1482,1,SBT2050,2,3,,4,21374,2.499848,-0.6487,2803.465,2949.729,32.6,
1482,1,SBT2050,2,3,,4,21541,2.49968,-0.39996,2803.465,2973.42,30.3,
1482,1,SBT2050,2,3,,4,21708,2.49978,-0.26734,2803.465,2988.645,28.7,
1482,1,SBT2050,2,3,,4,21875,2.49982,-0.18479,2803.465,2998.994,27.6,
1482,1,SBT2050,2,3,,4,22042,2.49979,-0.1284,2803.465,3006.192,26.9,
1482,1,SBT2050,2,3,,4,22209,2.49984,-0.0854,2803.465,3011.1,26.3,
1482,1,SBT2050,2,3,,4,22376,2.49981,-0.05529,2803.465,3014.313,26,
1482,1,SBT2050,2,3,,4,22543,2.50006,-0.037728,2803.465,3016.43,25.8,
1482,1,SBT2050,2,3,,4,22710,2.499872,-0.028252,2803.465,3017.942,25.6,
1482,1,SBT2050,2,3,,4,22877,2.500027,-0.022305,2803.465,3019.105,25.5,
1482,1,SBT2050,2,3,,4,23044,2.5,-0.017966,2803.465,3020.03,25.4,
1482,1,SBT2050,2,3,,4,23211,2.50012,-0.01486,2803.465,3020.786,25.4,
1482,1,SBT2050,2,3,,4,23378,2.50005,-0.012725,2803.465,3021.421,25.3,
1482,1,SBT2050,2,3,,4,23545,2.49996,-0.011282,2803.465,3021.977,25.3,
1482,1,SBT2050,2,3,,4,23712,2.50005,-0.010506,2803.465,3022.482,25.3,
1482,1,SBT2050,2,3,,5,23878,2.5604,0,2803.465,3022.675,25.2,
1482,1,SBT2050,2,3,,5,24045,2.62514,0,2803.465,3022.675,25.2,
1482,1,SBT2050,2,3,,5,24212,2.669085,0,2803.465,3022.675,25.2,
1482,1,SBT2050,2,3,,5,24379,2.70058,0,2803.465,3022.675,25.3,
1482,1,SBT2050,2,3,,5,24546,2.723891,0,2803.465,3022.675,25.2,
1482,1,SBT2050,2,3,,5,24713,2.741915,0,2803.465,3022.675,25.2,
1482,1,SBT2050,2,3,,5,24880,2.75609,0,2803.465,3022.675,25.2,
1482,1,SBT2050,2,3,,5,25047,2.76753,0,2803.465,3022.675,25.2,
1482,1,SBT2050,2,3,,5,25214,2.77713,0,2803.465,3022.675,25.2,
1482,1,SBT2050,2,3,,5,25381,2.78515,0,2803.465,3022.675,25.2,
1482,1,SBT2050,2,3,,5,25548,2.79225,0,2803.465,3022.675,25.2,
1482,1,SBT2050,2,3,,5,25579.028,2.793269,-0.0001,2803.465,3022.675,,