File: ORRG/Test1575.csv
Request Year:,2018,,,,,,,,,,,,
Test:,1575,,,,,,,,,,,,
Test Description:,,,,,,,,,,,,,
TestRegime Name:,Aging_test caseB_1,,,,,,,,,,,,
TestRegime Suffix:,SHP_LC,,,,,,,,,,,,
TestRegime CellSize:,18650,,,,,,,,,,,,
TestRegime Version:,3,,,,,,,,,,,,
Number Of Cells:,1,,,,,,,,,,,,
LotID:,,,,,,,,,,,,,
Lot Description:,,,,,,,,,,,,,
Date Made:,1/21/2003 12:00 AM,,,,,,,,,,,,
Origin:,Other,,,,,,,,,,,,
Requestor:,Admin,,,,,,,,,,,,
Product ID:,Default product,,,,,,,,,,,,
Storage Temp:,R.T./AMB,,,,,,,,,,,,
Storage Delay:,0 days,,,,,,,,,,,,
Test Temp:,R.T./AMB,,,,,,,,,,,,
Start Time:,4/27/2018 7:44 PM,,,,,,,,,,,,
End Time:,4/27/2018 9:03 PM,,,,,,,,,,,,
Operator Instructions:,,,,,,,,,,,,,
Test,Cell,Rack,Shelf,Position,Cell ID,Step,Total Time (Seconds),Voltage (V),Current (A),Charge Capacity (mAh),Discharge Capacity (mAh),Trs (Â°C),
1575,1,SBT2050,2,3,,0,0.1,3.314703,0,0,0,,
1575,1,SBT2050,2,3,,0,24.8,3.31462,0,0,0,,
1575,1,SBT2050,2,3,,0,49.5,3.31474,0,0,0,,
1575,1,SBT2050,2,3,,0,74.2,3.31483,0,0,0,,
1575,1,SBT2050,2,3,,0,98.9,3.31471,0,0,0,,
1575,1,SBT2050,2,3,,0,123.6,3.31476,0,0,0,,
1575,1,SBT2050,2,3,,0,148.3,3.31483,0,0,0,,
1575,1,SBT2050,2,3,,0,173,3.31501,0,0,0,,
1575,1,SBT2050,2,3,,0,197.7,3.315106,0,0,0,,
1575,1,SBT2050,2,3,,0,222.4,3.31507,0,0,0,,
1575,1,SBT2050,2,3,,0,247.1,3.31479,0,0,0,,
1575,1,SBT2050,2,3,,0,271.8,3.31466,0,0,0,,
1575,1,SBT2050,2,3,,0,296.5,3.314994,0,0,0,,
1575,1,SBT2050,2,3,,0,321.2,3.31503,0,0,0,,
1575,1,SBT2050,2,3,,0,345.9,3.31498,0,0,0,,
1575,1,SBT2050,2,3,,0,370.6,3.315051,0,0,0,,
1575,1,SBT2050,2,3,,0,395.3,3.3148,0,0,0,,
1575,1,SBT2050,2,3,,0,420,3.31469,0,0,0,24.8,
1575,1,SBT2050,2,3,,0,444.7,3.314703,0,0,0,,
1575,1,SBT2050,2,3,,0,469.4,3.31471,0,0,0,,
1575,1,SBT2050,2,3,,0,494.1,3.31484,0,0,0,,
1575,1,SBT2050,2,3,,0,518.8,3.31476,0,0,0,,
1575,1,SBT2050,2,3,,0,543.5,3.31472,0,0,0,,
1575,1,SBT2050,2,3,,0,568.2,3.31494,0,0,0,,
1575,1,SBT2050,2,3,,0,592.9,3.31494,0,0,0,,
1575,1,SBT2050,2,3,,0,617.6,3.314796,0,0,0,,
1575,1,SBT2050,2,3,,0,642.3,3.3148,0,0,0,,
1575,1,SBT2050,2,3,,0,667,3.31504,0,0,0,,
1575,1,SBT2050,2,3,,0,691.7,3.31495,0,0,0,,
1575,1,SBT2050,2,3,,0,716.4,3.3148,0,0,0,,
1575,1,SBT2050,2,3,,0,741.1,3.31487,0,0,0,,
1575,1,SBT2050,2,3,,0,765.8,3.31493,0,0,0,,
1575,1,SBT2050,2,3,,0,790.5,3.31485,0,0,0,,
1575,1,SBT2050,2,3,,0,815.2,3.31491,0,0,0,,
1575,1,SBT2050,2,3,,0,839.9,3.31516,0,0,0,,
1575,1,SBT2050,2,3,,0,864.6,3.31488,0,0,0,,
1575,1,SBT2050,2,3,,0,889.3,3.31504,0,0,0,,
1575,1,SBT2050,2,3,,0,914,3.314949,0,0,0,,
1575,1,SBT2050,2,3,,0,938.7,3.314964,0,0,0,,
1575,1,SBT2050,2,3,,0,963.4,3.31503,0,0,0,,
1575,1,SBT2050,2,3,,0,988.1,3.3148,0,0,0,,
1575,1,SBT2050,2,3,,0,1012.8,3.31475,0,0,0,,
1575,1,SBT2050,2,3,,0,1037.5,3.31513,0,0,0,,
1575,1,SBT2050,2,3,,0,1062.2,3.31482,0,0,0,,
1575,1,SBT2050,2,3,,0,1086.9,3.31498,0,0,0,,
1575,1,SBT2050,2,3,,0,1111.6,3.31523,0,0,0,,
1575,1,SBT2050,2,3,,0,1136.3,3.31508,0,0,0,,
1575,1,SBT2050,2,3,,0,1161,3.31491,0,0,0,,
1575,1,SBT2050,2,3,,0,1185.7,3.315154,0,0,0,,
1575,1,SBT2050,2,3,,0,1210.4,3.31501,0,0,0,,
1575,1,SBT2050,2,3,,0,1235.1,3.31485,0,0,0,,
1575,1,SBT2050,2,3,,0,1259.8,3.31479,0,0,0,,
1575,1,SBT2050,2,3,,0,1284.5,3.3149,0,0,0,,
1575,1,SBT2050,2,3,,0,1309.2,3.31508,0,0,0,,
1575,1,SBT2050,2,3,,0,1333.9,3.31515,0,0,0,,
1575,1,SBT2050,2,3,,0,1358.6,3.31498,0,0,0,,
1575,1,SBT2050,2,3,,0,1383.3,3.315018,0,0,0,,
1575,1,SBT2050,2,3,,0,1408,3.31516,0,0,0,,
1575,1,SBT2050,2,3,,0,1432.7,3.31492,0,0,0,,
1575,1,SBT2050,2,3,,0,1457.4,3.31511,0,0,0,,
1575,1,SBT2050,2,3,,0,1482.1,3.31515,0,0,0,,
1575,1,SBT2050,2,3,,0,1506.8,3.31522,0,0,0,,
1575,1,SBT2050,2,3,,0,1531.5,3.31533,0,0,0,,
1575,1,SBT2050,2,3,,0,1556.2,3.31515,0,0,0,,
1575,1,SBT2050,2,3,,0,1580.9,3.31513,0,0,0,,
1575,1,SBT2050,2,3,,0,1605.6,3.31477,0,0,0,,
1575,1,SBT2050,2,3,,0,1630.3,3.3149,0,0,0,,
1575,1,SBT2050,2,3,,0,1655,3.31509,0,0,0,,
1575,1,SBT2050,2,3,,0,1679.7,3.31497,0,0,0,,
1575,1,SBT2050,2,3,,0,1704.4,3.31514,0,0,0,,
1575,1,SBT2050,2,3,,0,1729.1,3.31508,0,0,0,,
1575,1,SBT2050,2,3,,0,1753.8,3.31516,0,0,0,,
1575,1,SBT2050,2,3,,0,1778.5,3.31487,0,0,0,,
1575,1,SBT2050,2,3,,7,1803.1,3.39272,0.8288,0.181,0,,
1575,1,SBT2050,2,3,,7,1827.6,3.98603,9.011,48.078,0,,
1575,1,SBT2050,2,3,,7,1852,4.00298,7.953,104.411,0,28.8,
1575,1,SBT2050,2,3,,7,1876.4,3.998924,7.423,156.454,0,,
1575,1,SBT2050,2,3,,7,1900.9,3.98218,7.031,205.592,0,,
1575,1,SBT2050,2,3,,7,1925.3,3.9657,6.732,252.158,0,,
1575,1,SBT2050,2,3,,7,1949.7,3.95297,6.498,296.95,0,,
1575,1,SBT2050,2,3,,7,1974.1,3.945294,6.335,340.404,0,,
1575,1,SBT2050,2,3,,7,1998.6,3.94045,6.192,383.027,0,,
1575,1,SBT2050,2,3,,7,2023,3.93847,6.063,424.599,0,,
1575,1,SBT2050,2,3,,7,2047.4,3.93799,5.952,465.331,0,,
1575,1,SBT2050,2,3,,7,2071.9,3.93916,5.856,505.488,0,,
1575,1,SBT2050,2,3,,7,2096.3,3.94022,5.73,544.754,0,,
1575,1,SBT2050,2,3,,7,2120.7,3.94284,5.619,583.207,0,,
1575,1,SBT2050,2,3,,7,2145.1,3.94592,5.496,620.886,0,,
1575,1,SBT2050,2,3,,7,2169.6,3.949996,5.39,657.919,0,,
1575,1,SBT2050,2,3,,7,2194,3.95356,5.262,694.006,0,,
1575,1,SBT2050,2,3,,7,2218.4,3.957316,5.133,729.27,0,,
1575,1,SBT2050,2,3,,7,2242.9,3.96197,5.024,763.854,0,,
1575,1,SBT2050,2,3,,7,2267.3,3.96617,4.911,797.5,0,,
1575,1,SBT2050,2,3,,7,2291.7,3.97015,4.785,830.325,0,,
1575,1,SBT2050,2,3,,7,2316.1,3.97442,4.665,862.359,0,,
1575,1,SBT2050,2,3,,7,2340.6,3.97867,4.5458,893.703,0,,
1575,1,SBT2050,2,3,,7,2365,3.98298,4.4317,924.129,0,,
1575,1,SBT2050,2,3,,7,2389.4,3.98718,4.3207,953.786,0,,
1575,1,SBT2050,2,3,,7,2413.9,3.99128,4.2128,982.798,0,,
1575,1,SBT2050,2,3,,7,2438.3,3.99782,4.1521,1011.121,0,,
1575,1,SBT2050,2,3,,7,2462.7,4.00439,4.0848,1039.008,0,,
1575,1,SBT2050,2,3,,7,2487.1,4.01064,4.0045,1066.413,0,,
1575,1,SBT2050,2,3,,7,2511.6,4.01742,3.9428,1093.455,0,,
1575,1,SBT2050,2,3,,7,2536,4.02393,3.8772,1119.929,0,,
1575,1,SBT2050,2,3,,7,2560.4,4.03007,3.8039,1145.947,0,,
1575,1,SBT2050,2,3,,7,2584.9,4.03674,3.7409,1171.618,0,,
1575,1,SBT2050,2,3,,7,2609.3,4.04211,3.6703,1196.724,0,,
1575,1,SBT2050,2,3,,7,2633.7,4.04838,3.6051,1221.382,0,,
1575,1,SBT2050,2,3,,7,2658.1,4.054104,3.5429,1245.614,0,,
1575,1,SBT2050,2,3,,7,2682.6,4.05979,3.4762,1269.52,0,,
1575,1,SBT2050,2,3,,7,2707,4.06544,3.416,1292.889,0,,
1575,1,SBT2050,2,3,,7,2731.4,4.0705,3.3483,1315.811,0,,
1575,1,SBT2050,2,3,,7,2755.9,4.07533,3.2775,1338.36,0,,
1575,1,SBT2050,2,3,,7,2780.3,4.08058,3.2236,1360.382,0,,
1575,1,SBT2050,2,3,,7,2804.7,4.08477,3.1502,1381.973,0,,
1575,1,SBT2050,2,3,,7,2829.1,4.08937,3.0892,1403.125,0,,
1575,1,SBT2050,2,3,,7,2853.6,4.093618,3.026,1423.929,0,,
1575,1,SBT2050,2,3,,7,2878,4.09786,2.9648,1444.245,0,,
1575,1,SBT2050,2,3,,7,2902.4,4.10333,2.9255,1464.216,0,,
1575,1,SBT2050,2,3,,7,2926.9,4.10808,2.8782,1483.887,0,,
1575,1,SBT2050,2,3,,7,2951.3,4.11326,2.829,1503.188,0,,
1575,1,SBT2050,2,3,,7,2975.7,4.11776,2.7756,1522.141,0,,
1575,1,SBT2050,2,3,,7,3000.1,4.12281,2.7296,1540.857,0,,
1575,1,SBT2050,2,3,,7,3024.6,4.12787,2.6922,1559.32,0,,
1575,1,SBT2050,2,3,,7,3049,4.13183,2.6401,1577.413,0,,
1575,1,SBT2050,2,3,,7,3073.4,4.13709,2.6087,1595.176,0,,
1575,1,SBT2050,2,3,,7,3097.9,4.141536,2.5569,1612.745,0,,
1575,1,SBT2050,2,3,,7,3122.3,4.14569,2.513,1629.94,0,,
1575,1,SBT2050,2,3,,7,3146.7,4.15035,2.4746,1646.845,0,,
1575,1,SBT2050,2,3,,7,3171.1,4.15495,2.4404,1663.505,0,,
1575,1,SBT2050,2,3,,7,3195.6,4.159574,2.3968,1679.97,0,,
1575,1,SBT2050,2,3,,7,3220,4.163808,2.3618,1696.116,0,,
1575,1,SBT2050,2,3,,7,3244.4,4.168164,2.3265,1711.999,0,,
1575,1,SBT2050,2,3,,7,3268.9,4.17207,2.2835,1727.681,0,,
1575,1,SBT2050,2,3,,7,3293.3,4.17676,2.2487,1743.053,0,,
1575,1,SBT2050,2,3,,7,3317.7,4.18055,2.2122,1758.162,0,,
1575,1,SBT2050,2,3,,7,3342.1,4.18469,2.1801,1773.056,0,,
1575,1,SBT2050,2,3,,7,3366.6,4.18874,2.1472,1787.762,0,,
1575,1,SBT2050,2,3,,7,3391,4.19304,2.1087,1802.187,0,,
1575,1,SBT2050,2,3,,7,3415.4,4.196444,2.0703,1816.352,0,,
1575,1,SBT2050,2,3,,7,3439.9,4.20025,2.0392,1830.359,0,,
1575,1,SBT2050,2,3,,7,3464.3,4.2043,2.0076,1844.08,0,,
1575,1,SBT2050,2,3,,7,3488.7,4.208006,1.9732,1857.579,0,,
1575,1,SBT2050,2,3,,7,3513.1,4.211824,1.942,1870.861,0,,
1575,1,SBT2050,2,3,,7,3537.6,4.215408,1.91,1883.989,0,,
1575,1,SBT2050,2,3,,7,3562,4.21929,1.8797,1896.846,0,,
1575,1,SBT2050,2,3,,7,3586.4,4.22306,1.8497,1909.505,0,,
1575,1,SBT2050,2,3,,7,3610.9,4.22671,1.819,1922.008,0,,
1575,1,SBT2050,2,3,,7,3635.3,4.23081,1.7993,1934.266,0,,
1575,1,SBT2050,2,3,,7,3659.7,4.234298,1.7681,1946.349,0,,
1575,1,SBT2050,2,3,,7,3684.1,4.23789,1.7383,1958.221,0,,
1575,1,SBT2050,2,3,,7,3708.6,4.24121,1.7079,1969.949,0,,
1575,1,SBT2050,2,3,,7,3733,4.24487,1.68,1981.45,0,,
1575,1,SBT2050,2,3,,7,3757.4,4.248076,1.6503,1992.754,0,,
1575,1,SBT2050,2,3,,7,3781.9,4.25162,1.627,2003.91,0,,
1575,1,SBT2050,2,3,,7,3806.3,4.25535,1.6031,2014.838,0,,
1575,1,SBT2050,2,3,,7,3830.7,4.25817,1.574,2025.601,0,,
1575,1,SBT2050,2,3,,7,3855.1,4.26223,1.5549,2036.213,0,,
1575,1,SBT2050,2,3,,7,3879.6,4.265502,1.5288,2046.682,0,,
1575,1,SBT2050,2,3,,7,3904,4.269534,1.5122,2056.989,0,,
1575,1,SBT2050,2,3,,7,3928.4,4.27214,1.4842,2067.147,0,,
1575,1,SBT2050,2,3,,7,3952.9,4.27607,1.4681,2077.193,0,,
1575,1,SBT2050,2,3,,7,3977.3,4.27912,1.442,2087.07,0,,
1575,1,SBT2050,2,3,,7,4001.7,4.28155,1.4178,2096.777,0,,
1575,1,SBT2050,2,3,,7,4026.1,4.28534,1.4059,2106.338,0,,
1575,1,SBT2050,2,3,,7,4050.6,4.28861,1.3824,2115.815,0,,
1575,1,SBT2050,2,3,,7,4075,4.29133,1.3672,2125.13,0,,
1575,1,SBT2050,2,3,,7,4099.4,4.29458,1.351,2134.324,0,,
1575,1,SBT2050,2,3,,7,4123.9,4.29613,1.3265,2143.423,0,,
1575,1,SBT2050,2,3,,7,4148.3,4.29894,1.3121,2152.365,0,,
1575,1,SBT2050,2,3,,7,4172.7,4.30124,1.2969,2161.207,0,,
1575,1,SBT2050,2,3,,7,4197.1,4.30424,1.2878,2169.981,0,,
1575,1,SBT2050,2,3,,7,4221.6,4.30593,1.2712,2178.691,0,,
1575,1,SBT2050,2,3,,7,4246,4.307682,1.2586,2187.263,0,,
1575,1,SBT2050,2,3,,7,4270.4,4.30895,1.2436,2195.742,0,,
1575,1,SBT2050,2,3,,7,4294.9,4.31046,1.2316,2204.169,0,,
1575,1,SBT2050,2,3,,7,4319.3,4.31172,1.2212,2212.482,0,,
1575,1,SBT2050,2,3,,7,4343.7,4.31212,1.2081,2220.722,0,,
1575,1,SBT2050,2,3,,7,4368.1,4.31308,1.1989,2228.888,0,,
1575,1,SBT2050,2,3,,7,4392.6,4.31352,1.1902,2237.026,0,,
1575,1,SBT2050,2,3,,7,4417,4.31391,1.1851,2245.084,0,,
1575,1,SBT2050,2,3,,7,4441.4,4.31404,1.1786,2253.099,0,,
1575,1,SBT2050,2,3,,7,4465.9,4.314662,1.1751,2261.115,0,,
1575,1,SBT2050,2,3,,7,4490.3,4.31453,1.1727,2269.075,0,,
1575,1,SBT2050,2,3,,7,4514.7,4.31455,1.1728,2277.019,0,,
1575,1,SBT2050,2,3,,7,4539.1,4.31413,1.1707,2284.96,0,,
1575,1,SBT2050,2,3,,7,4563.6,4.31397,1.1704,2292.935,0,,
1575,1,SBT2050,2,3,,7,4588,4.314166,1.1718,2300.89,0,,
1575,1,SBT2050,2,3,,7,4612.4,4.31471,1.18,2308.87,0,,
1575,1,SBT2050,2,3,,7,4636.9,4.315228,1.1863,2316.92,0,,
1575,1,SBT2050,2,3,,7,4661.3,4.31733,1.2113,2325.026,0,,
1575,1,SBT2050,2,3,,7,4685.7,4.32437,1.2752,2333.451,0,,
1575,1,SBT2050,2,3,,7,4710.1,4.33514,1.3617,2342.353,0,,
1575,1,SBT2050,2,3,,7,4726.842,4.34608,1.4478,2348.883,0,,