File: ORRG/Test1536.csv
Request Year:,2018,,,,,,,,,,,,
Test:,1536,,,,,,,,,,,,
Test Description:,,,,,,,,,,,,,
TestRegime Name:,Aging_Performance,,,,,,,,,,,,
TestRegime Suffix:,SHP_LC,,,,,,,,,,,,
TestRegime CellSize:,18650,,,,,,,,,,,,
TestRegime Version:,1,,,,,,,,,,,,
Number Of Cells:,1,,,,,,,,,,,,
LotID:,,,,,,,,,,,,,
Lot Description:,,,,,,,,,,,,,
Date Made:,1/21/2003 12:00 AM,,,,,,,,,,,,
Origin:,Other,,,,,,,,,,,,
Requestor:,Admin,,,,,,,,,,,,
Product ID:,Default product,,,,,,,,,,,,
Storage Temp:,R.T./AMB,,,,,,,,,,,,
Storage Delay:,0 days,,,,,,,,,,,,
Test Temp:,R.T./AMB,,,,,,,,,,,,
Start Time:,4/22/2018 9:10 AM,,,,,,,,,,,,
End Time:,4/22/2018 7:24 PM,,,,,,,,,,,,
Operator Instructions:,,,,,,,,,,,,,
Test,Cell,Rack,Shelf,Position,Cell ID,Step,Total Time (Seconds),Voltage (V),Current (A),Charge Capacity (mAh),Discharge Capacity (mAh),TC1 (Â°C),
1536,1,SBT2050,2,3,,0,1,3.8733,0,0,0,27.1,
1536,1,SBT2050,2,3,,0,243,3.861342,0,0,0,26,
1536,1,SBT2050,2,3,,1,485,3.57142,-2.9357,0,150.874,27.3,
1536,1,SBT2050,2,3,,1,727,3.49205,-2.9354,0,348.234,28.2,
1536,1,SBT2050,2,3,,1,969,3.42046,-2.9355,0,545.596,28.5,
1536,1,SBT2050,2,3,,1,1211,3.348139,-2.9359,0,742.956,28.6,
1536,1,SBT2050,2,3,,1,1453,3.26835,-2.936,0,940.317,29.1,
1536,1,SBT2050,2,3,,1,1695,3.16384,-2.9359,0,1137.678,29.8,
1536,1,SBT2050,2,3,,1,1937,3.00661,-2.9362,0,1335.039,31.1,
1536,1,SBT2050,2,3,,1,2179,2.631742,-2.9358,0,1532.401,33.4,
1536,1,SBT2050,2,3,,1,2421,2.49979,-1.2467,0,1670.573,34.4,
1536,1,SBT2050,2,3,,1,2663,2.499805,-0.5526,0,1726.707,31,
1536,1,SBT2050,2,3,,1,2905,2.49995,-0.32661,0,1755.009,28.5,
1536,1,SBT2050,2,3,,1,3147,2.49995,-0.23018,0,1773.345,27,
1536,1,SBT2050,2,3,,1,3389,2.49984,-0.17697,0,1786.872,26.2,
1536,1,SBT2050,2,3,,1,3631,2.499972,-0.14289,0,1797.538,25.9,
1536,1,SBT2050,2,3,,1,3873,2.49985,-0.11815,0,1806.266,25.7,
1536,1,SBT2050,2,3,,1,4115,2.49996,-0.10021,0,1813.582,25.6,
1536,1,SBT2050,2,3,,1,4357,2.49991,-0.08626,0,1819.838,25.5,
1536,1,SBT2050,2,3,,1,4599,2.49996,-0.07531,0,1825.257,25.5,
1536,1,SBT2050,2,3,,1,4841,2.49988,-0.06578,0,1829.983,25.5,
1536,1,SBT2050,2,3,,1,5083,2.50004,-0.05764,0,1834.122,25.5,
1536,1,SBT2050,2,3,,1,5325,2.499984,-0.05069,0,1837.757,25.5,
1536,1,SBT2050,2,3,,1,5567,2.499984,-0.044628,0,1840.962,25.5,
1536,1,SBT2050,2,3,,1,5809,2.499984,-0.039526,0,1843.792,25.5,
1536,1,SBT2050,2,3,,1,6051,2.499817,-0.034538,0,1846.28,25.5,
1536,1,SBT2050,2,3,,1,6293,2.49986,-0.030226,0,1848.451,25.5,
1536,1,SBT2050,2,3,,1,6535,2.50016,-0.026118,0,1850.341,25.5,
1536,1,SBT2050,2,3,,1,6777,2.50007,-0.023038,0,1851.989,25.5,
1536,1,SBT2050,2,3,,1,7019,2.50015,-0.020083,0,1853.427,25.5,
1536,1,SBT2050,2,3,,1,7261,2.49986,-0.017328,0,1854.68,25.5,
1536,1,SBT2050,2,3,,1,7503,2.499984,-0.014965,0,1855.763,25.4,
1536,1,SBT2050,2,3,,1,7745,2.50008,-0.012936,0,1856.698,25.5,
1536,1,SBT2050,2,3,,1,7987,2.50007,-0.011171,0,1857.503,25.5,
1536,1,SBT2050,2,3,,2,8228,3.56278,2.9362,76.435,1857.939,26.3,
1536,1,SBT2050,2,3,,2,8470,3.68362,2.936,273.795,1857.939,29.1,
1536,1,SBT2050,2,3,,2,8712,3.730592,2.9363,471.156,1857.939,30.4,
1536,1,SBT2050,2,3,,2,8954,3.76729,2.9366,668.517,1857.939,30.6,
1536,1,SBT2050,2,3,,2,9196,3.80956,2.9361,865.878,1857.939,30.6,
1536,1,SBT2050,2,3,,2,9438,3.85866,2.9361,1063.239,1857.939,30.7,
1536,1,SBT2050,2,3,,2,9680,3.919962,2.9363,1260.6,1857.939,30.8,
1536,1,SBT2050,2,3,,2,9922,3.98884,2.936,1457.961,1857.939,31.1,
1536,1,SBT2050,2,3,,2,10164,4.06087,2.9364,1655.322,1857.939,31.3,
1536,1,SBT2050,2,3,,2,10406,4.135374,2.936,1852.684,1857.939,31.5,
1536,1,SBT2050,2,3,,2,10648,4.15013,2.2099,2028.932,1857.939,31.2,
1536,1,SBT2050,2,3,,2,10890,4.14997,1.5657,2154.406,1857.939,29.9,
1536,1,SBT2050,2,3,,2,11132,4.15004,1.144,2244.425,1857.939,28.7,
1536,1,SBT2050,2,3,,2,11374,4.15021,0.8704,2311.456,1857.939,27.8,
1536,1,SBT2050,2,3,,2,11616,4.15003,0.6834,2363.273,1857.939,27.2,
1536,1,SBT2050,2,3,,2,11858,4.14997,0.554,2404.595,1857.939,26.8,
1536,1,SBT2050,2,3,,2,12100,4.15013,0.45974,2438.49,1857.939,26.5,
1536,1,SBT2050,2,3,,2,12342,4.15008,0.39032,2466.939,1857.939,26.4,
1536,1,SBT2050,2,3,,2,12584,4.15002,0.33919,2491.38,1857.939,26.2,
1536,1,SBT2050,2,3,,2,12826,4.15009,0.29702,2512.707,1857.939,26.1,
1536,1,SBT2050,2,3,,2,13068,4.149936,0.26269,2531.485,1857.939,26,
1536,1,SBT2050,2,3,,2,13310,4.15015,0.23438,2548.143,1857.939,26,
1536,1,SBT2050,2,3,,2,13552,4.14998,0.21002,2563.029,1857.939,25.9,
1536,1,SBT2050,2,3,,2,13794,4.150222,0.1882,2576.4,1857.939,25.9,
1536,1,SBT2050,2,3,,2,14036,4.14988,0.17091,2588.471,1857.939,25.8,
1536,1,SBT2050,2,3,,2,14278,4.1501,0.15472,2599.412,1857.939,25.8,
1536,1,SBT2050,2,3,,2,14520,4.15019,0.14106,2609.352,1857.939,25.8,
1536,1,SBT2050,2,3,,2,14762,4.15008,0.12925,2618.433,1857.939,25.8,
1536,1,SBT2050,2,3,,2,15004,4.15008,0.11861,2626.731,1857.939,25.8,
1536,1,SBT2050,2,3,,2,15246,4.149936,0.10842,2634.346,1857.939,25.7,
1536,1,SBT2050,2,3,,2,15488,4.14996,0.10003,2641.344,1857.939,25.7,
1536,1,SBT2050,2,3,,2,15730,4.14998,0.09215,2647.799,1857.939,25.7,
1536,1,SBT2050,2,3,,2,15972,4.149948,0.08557,2653.782,1857.939,25.7,
1536,1,SBT2050,2,3,,2,16214,4.1497,0.08025,2659.343,1857.939,25.7,
1536,1,SBT2050,2,3,,2,16456,4.15009,0.07436,2664.518,1857.939,25.7,
1536,1,SBT2050,2,3,,2,16698,4.15032,0.06885,2669.326,1857.939,25.7,
1536,1,SBT2050,2,3,,2,16940,4.15007,0.06477,2673.82,1857.939,25.7,
1536,1,SBT2050,2,3,,2,17182,4.15002,0.06099,2678.018,1857.939,25.7,
1536,1,SBT2050,2,3,,2,17424,4.1501,0.05681,2681.954,1857.939,25.6,
1536,1,SBT2050,2,3,,2,17666,4.150222,0.05315,2685.637,1857.939,25.7,
1536,1,SBT2050,2,3,,2,17908,4.149912,0.04975,2689.089,1857.939,25.7,
1536,1,SBT2050,2,3,,2,18150,4.149948,0.047442,2692.334,1857.939,25.7,
1536,1,SBT2050,2,3,,2,18392,4.15004,0.04392,2695.406,1857.939,25.7,
1536,1,SBT2050,2,3,,2,18634,4.14988,0.041786,2698.294,1857.939,25.7,
1536,1,SBT2050,2,3,,2,18876,4.14983,0.039197,2701,1857.939,25.6,
1536,1,SBT2050,2,3,,2,19118,4.15028,0.036702,2703.555,1857.939,25.7,
1536,1,SBT2050,2,3,,2,19360,4.149936,0.03532,2705.975,1857.939,25.7,
1536,1,SBT2050,2,3,,2,19602,4.1498,0.033396,2708.266,1857.939,25.7,
1536,1,SBT2050,2,3,,2,19844,4.15014,0.031225,2710.431,1857.939,25.6,
1536,1,SBT2050,2,3,,2,20086,4.150234,0.027942,2712.469,1857.939,25.6,
1536,1,SBT2050,2,3,,2,20328,4.14983,0.025158,2714.241,1857.939,24.8,
1536,1,SBT2050,2,3,,2,20570,4.1502,0.022672,2715.834,1857.939,24.7,
1536,1,SBT2050,2,3,,2,20812,4.1501,0.020946,2717.319,1857.939,24.7,
1536,1,SBT2050,2,3,,2,21054,4.15006,0.019719,2718.687,1857.939,24.7,
1536,1,SBT2050,2,3,,2,21296,4.15004,0.019073,2720.012,1857.939,24.8,
1536,1,SBT2050,2,3,,2,21538,4.149924,0.018453,2721.286,1857.939,24.8,
1536,1,SBT2050,2,3,,2,21780,4.14989,0.017646,2722.52,1857.939,24.9,
1536,1,SBT2050,2,3,,2,22022,4.14984,0.017641,2723.718,1857.939,24.9,
1536,1,SBT2050,2,3,,2,22264,4.149912,0.016561,2724.862,1857.939,24.8,
1536,1,SBT2050,2,3,,2,22506,4.15015,0.015498,2725.926,1857.939,24.7,
1536,1,SBT2050,2,3,,2,22748,4.1501,0.015492,2726.956,1857.939,24.8,
1536,1,SBT2050,2,3,,2,22990,4.14976,0.015233,2727.982,1857.939,24.9,
1536,1,SBT2050,2,3,,2,23232,4.15008,0.014522,2728.985,1857.939,25.1,
1536,1,SBT2050,2,3,,2,23474,4.15007,0.014342,2729.988,1857.939,25.1,
1536,1,SBT2050,2,3,,2,23716,4.15014,0.013942,2730.946,1857.939,25.1,
1536,1,SBT2050,2,3,,2,23958,4.14989,0.01318,2731.86,1857.939,25.1,
1536,1,SBT2050,2,3,,2,24200,4.150222,0.012943,2732.748,1857.939,25.1,
1536,1,SBT2050,2,3,,2,24442,4.15008,0.01208,2733.593,1857.939,25,
1536,1,SBT2050,2,3,,2,24684,4.15008,0.011737,2734.406,1857.939,25,
1536,1,SBT2050,2,3,,2,24926,4.15008,0.011498,2735.192,1857.939,25,
1536,1,SBT2050,2,3,,2,25168,4.15008,0.011492,2735.961,1857.939,25,
1536,1,SBT2050,2,3,,2,25410,4.15006,0.010935,2736.698,1857.939,25,
1536,1,SBT2050,2,3,,3,25651,4.14972,0,2737.403,1857.939,25,
1536,1,SBT2050,2,3,,3,25893,4.14652,0,2737.403,1857.939,25,
1536,1,SBT2050,2,3,,3,26135,4.145636,0,2737.403,1857.939,25,
1536,1,SBT2050,2,3,,3,26377,4.14552,0,2737.403,1857.939,25,
1536,1,SBT2050,2,3,,3,26619,4.14488,0,2737.403,1857.939,25,
1536,1,SBT2050,2,3,,3,26861,4.14467,0,2737.403,1857.939,25,
1536,1,SBT2050,2,3,,3,27103,4.144232,0,2737.403,1857.939,25,
1536,1,SBT2050,2,3,,3,27345,4.14399,0,2737.403,1857.939,25,
1536,1,SBT2050,2,3,,4,27586,3.75426,-2.9358,2737.403,1969.154,27,
1536,1,SBT2050,2,3,,4,27828,3.718546,-2.9359,2737.403,2166.515,28.9,
1536,1,SBT2050,2,3,,4,28070,3.66801,-2.9358,2737.403,2363.877,29.4,
1536,1,SBT2050,2,3,,4,28312,3.60654,-2.9359,2737.403,2561.238,29.5,
1536,1,SBT2050,2,3,,4,28554,3.53935,-2.9359,2737.403,2758.6,29.5,
1536,1,SBT2050,2,3,,4,28796,3.46986,-2.9357,2737.403,2955.962,29.6,
1536,1,SBT2050,2,3,,4,29038,3.40106,-2.936,2737.403,3153.323,29.6,
1536,1,SBT2050,2,3,,4,29280,3.33288,-2.9359,2737.403,3350.685,29.7,
1536,1,SBT2050,2,3,,4,29522,3.25946,-2.9359,2737.403,3548.047,30.1,
1536,1,SBT2050,2,3,,4,29764,3.16898,-2.9359,2737.403,3745.408,30.7,
1536,1,SBT2050,2,3,,4,30006,3.04239,-2.936,2737.403,3942.769,31.6,
1536,1,SBT2050,2,3,,4,30248,2.82532,-2.9359,2737.403,4140.131,33.2,
1536,1,SBT2050,2,3,,4,30490,2.49982,-1.978,2737.403,4323.969,36,
1536,1,SBT2050,2,3,,4,30732,2.49999,-0.8341,2737.403,4411.752,33.3,
1536,1,SBT2050,2,3,,4,30974,2.49988,-0.45781,2737.403,4452.804,30,
1536,1,SBT2050,2,3,,4,31216,2.49998,-0.32095,2737.403,4478.355,28.1,
1536,1,SBT2050,2,3,,4,31458,2.500054,-0.25173,2737.403,4497.389,27.1,
1536,1,SBT2050,2,3,,4,31700,2.50001,-0.20633,2737.403,4512.715,26.5,
1536,1,SBT2050,2,3,,4,31942,2.49997,-0.17081,2737.403,4525.375,26.2,
1536,1,SBT2050,2,3,,4,32184,2.500054,-0.14172,2737.403,4535.856,26,
1536,1,SBT2050,2,3,,4,32426,2.49991,-0.118,2737.403,4544.558,25.8,
1536,1,SBT2050,2,3,,4,32668,2.50001,-0.0991,2737.403,4551.839,25.7,
1536,1,SBT2050,2,3,,4,32910,2.49998,-0.08417,2737.403,4557.987,25.5,
1536,1,SBT2050,2,3,,4,33152,2.499899,-0.07264,2737.403,4563.247,25.5,
1536,1,SBT2050,2,3,,4,33394,2.49995,-0.06298,2737.403,4567.801,25.4,
1536,1,SBT2050,2,3,,4,33636,2.49985,-0.05453,2737.403,4571.749,25.3,
1536,1,SBT2050,2,3,,4,33878,2.49999,-0.046186,2737.403,4575.127,25.3,
1536,1,SBT2050,2,3,,4,34120,2.50003,-0.039262,2737.403,4577.989,25.3,
1536,1,SBT2050,2,3,,4,34362,2.500054,-0.033932,2737.403,4580.435,25.2,
1536,1,SBT2050,2,3,,4,34604,2.49977,-0.0291,2737.403,4582.549,25.2,
1536,1,SBT2050,2,3,,4,34846,2.50009,-0.025311,2737.403,4584.378,25.2,
1536,1,SBT2050,2,3,,4,35088,2.49984,-0.021858,2737.403,4585.962,25.1,
1536,1,SBT2050,2,3,,4,35330,2.500197,-0.018784,2737.403,4587.324,25.1,
1536,1,SBT2050,2,3,,4,35572,2.50001,-0.016077,2737.403,4588.486,25.1,
1536,1,SBT2050,2,3,,4,35814,2.49984,-0.013784,2737.403,4589.482,25.1,
1536,1,SBT2050,2,3,,4,36056,2.50009,-0.011919,2737.403,4590.343,25,
1536,1,SBT2050,2,3,,4,36298,2.49991,-0.010362,2737.403,4591.09,25.1,
1536,1,SBT2050,2,3,,5,36539,2.5968,0,2737.403,4591.202,25,
1536,1,SBT2050,2,3,,5,36781,2.66066,0,2737.403,4591.202,25,
1536,1,SBT2050,2,3,,5,36799.364,2.66416,0,2737.403,4591.202,,