File: ORRG/Test1498.csv
Request Year:,2018,,,,,,,,,,,,
Test:,1498,,,,,,,,,,,,
Test Description:,,,,,,,,,,,,,
TestRegime Name:,Aging_Performance,,,,,,,,,,,,
TestRegime Suffix:,SHP_LC,,,,,,,,,,,,
TestRegime CellSize:,18650,,,,,,,,,,,,
TestRegime Version:,1,,,,,,,,,,,,
Number Of Cells:,1,,,,,,,,,,,,
LotID:,,,,,,,,,,,,,
Lot Description:,,,,,,,,,,,,,
Date Made:,1/21/2003 12:00 AM,,,,,,,,,,,,
Origin:,Other,,,,,,,,,,,,
Requestor:,Admin,,,,,,,,,,,,
Product ID:,Default product,,,,,,,,,,,,
Storage Temp:,R.T./AMB,,,,,,,,,,,,
Storage Delay:,0 days,,,,,,,,,,,,
Test Temp:,R.T./AMB,,,,,,,,,,,,
Start Time:,4/13/2018 9:39 AM,,,,,,,,,,,,
End Time:,4/13/2018 6:49 PM,,,,,,,,,,,,
Operator Instructions:,,,,,,,,,,,,,
Test,Cell,Rack,Shelf,Position,Cell ID,Step,Total Time (Seconds),Voltage (V),Current (A),Charge Capacity (mAh),Discharge Capacity (mAh),TC1 (Â°C),
1498,1,SBT2050,2,3,,0,1,3.36022,0,0,0,25,
1498,1,SBT2050,2,3,,0,216,3.359832,0,0,0,24.8,
1498,1,SBT2050,2,3,,1,431,2.49986,-1.4725,0,76.094,28.4,
1498,1,SBT2050,2,3,,1,646,2.49998,-0.8305,0,142.618,29.4,
1498,1,SBT2050,2,3,,1,861,2.50003,-0.5086,0,181.586,28.6,
1498,1,SBT2050,2,3,,1,1076,2.500051,-0.3445,0,206.462,27.8,
1498,1,SBT2050,2,3,,1,1291,2.499872,-0.25672,0,224.17,27,
1498,1,SBT2050,2,3,,1,1506,2.49981,-0.20212,0,237.759,26.3,
1498,1,SBT2050,2,3,,1,1721,2.49975,-0.1648,0,248.663,26,
1498,1,SBT2050,2,3,,1,1936,2.49997,-0.13822,0,257.675,25.9,
1498,1,SBT2050,2,3,,1,2151,2.49991,-0.11711,0,265.272,25.8,
1498,1,SBT2050,2,3,,1,2366,2.49999,-0.09983,0,271.739,25.7,
1498,1,SBT2050,2,3,,1,2581,2.49993,-0.08506,0,277.258,25.6,
1498,1,SBT2050,2,3,,1,2796,2.5,-0.07281,0,281.964,25.5,
1498,1,SBT2050,2,3,,1,3011,2.4998,-0.06155,0,285.969,25.4,
1498,1,SBT2050,2,3,,1,3226,2.49986,-0.05181,0,289.356,25.4,
1498,1,SBT2050,2,3,,1,3441,2.49997,-0.04289,0,292.183,25.3,
1498,1,SBT2050,2,3,,1,3656,2.499872,-0.034541,0,294.496,25.3,
1498,1,SBT2050,2,3,,1,3871,2.49979,-0.026913,0,296.331,25.2,
1498,1,SBT2050,2,3,,1,4086,2.49996,-0.020114,0,297.729,25.2,
1498,1,SBT2050,2,3,,1,4301,2.500051,-0.015163,0,298.766,25.2,
1498,1,SBT2050,2,3,,1,4516,2.50006,-0.011905,0,299.563,25.1,
1498,1,SBT2050,2,3,,2,4730,3.427508,2.9363,38.726,300.071,25.4,
1498,1,SBT2050,2,3,,2,4945,3.6611,2.936,214.068,300.071,28,
1498,1,SBT2050,2,3,,2,5160,3.70966,2.9362,389.409,300.071,29.5,
1498,1,SBT2050,2,3,,2,5375,3.740254,2.9357,564.751,300.071,29.9,
1498,1,SBT2050,2,3,,2,5590,3.77607,2.9364,740.092,300.071,30,
1498,1,SBT2050,2,3,,2,5805,3.816846,2.9358,915.433,300.071,30,
1498,1,SBT2050,2,3,,2,6020,3.86442,2.9362,1090.774,300.071,30,
1498,1,SBT2050,2,3,,2,6235,3.91976,2.9361,1266.116,300.071,30.2,
1498,1,SBT2050,2,3,,2,6450,3.97957,2.9359,1441.457,300.071,30.4,
1498,1,SBT2050,2,3,,2,6665,4.04223,2.9359,1616.798,300.071,30.5,
1498,1,SBT2050,2,3,,2,6880,4.10434,2.9362,1792.14,300.071,30.8,
1498,1,SBT2050,2,3,,2,7095,4.14982,2.669,1965.139,300.071,30.8,
1498,1,SBT2050,2,3,,2,7310,4.15005,1.9474,2101.913,300.071,30.1,
1498,1,SBT2050,2,3,,2,7525,4.14987,1.4324,2201.827,300.071,28.9,
1498,1,SBT2050,2,3,,2,7740,4.14997,1.0877,2276.341,300.071,27.9,
1498,1,SBT2050,2,3,,2,7955,4.14993,0.8537,2333.902,300.071,27.2,
1498,1,SBT2050,2,3,,2,8170,4.150002,0.6916,2379.781,300.071,26.6,
1498,1,SBT2050,2,3,,2,8385,4.15016,0.5713,2417.298,300.071,26.3,
1498,1,SBT2050,2,3,,2,8600,4.14993,0.4802,2448.568,300.071,26,
1498,1,SBT2050,2,3,,2,8815,4.15022,0.41168,2475.126,300.071,25.8,
1498,1,SBT2050,2,3,,2,9030,4.15009,0.3583,2498.071,300.071,25.7,
1498,1,SBT2050,2,3,,2,9245,4.15009,0.3161,2518.172,300.071,25.6,
1498,1,SBT2050,2,3,,2,9460,4.15015,0.28262,2536.022,300.071,25.6,
1498,1,SBT2050,2,3,,2,9675,4.150038,0.25225,2551.974,300.071,25.5,
1498,1,SBT2050,2,3,,2,9890,4.15015,0.22757,2566.292,300.071,25.4,
1498,1,SBT2050,2,3,,2,10105,4.14993,0.20597,2579.218,300.071,25.4,
1498,1,SBT2050,2,3,,2,10320,4.14999,0.1869,2590.954,300.071,25.3,
1498,1,SBT2050,2,3,,2,10535,4.14991,0.17141,2601.661,300.071,25.3,
1498,1,SBT2050,2,3,,2,10750,4.15018,0.15816,2611.48,300.071,25.4,
1498,1,SBT2050,2,3,,2,10965,4.150026,0.14602,2620.539,300.071,25.5,
1498,1,SBT2050,2,3,,2,11180,4.15029,0.13461,2628.923,300.071,25.5,
1498,1,SBT2050,2,3,,2,11395,4.1502,0.12578,2636.707,300.071,25.6,
1498,1,SBT2050,2,3,,2,11610,4.14998,0.11706,2643.952,300.071,25.6,
1498,1,SBT2050,2,3,,2,11825,4.15015,0.1091,2650.709,300.071,25.6,
1498,1,SBT2050,2,3,,2,12040,4.14993,0.10162,2656.999,300.071,25.6,
1498,1,SBT2050,2,3,,2,12255,4.15012,0.09513,2662.878,300.071,25.7,
1498,1,SBT2050,2,3,,2,12470,4.15024,0.08604,2668.32,300.071,25.5,
1498,1,SBT2050,2,3,,2,12685,4.150002,0.07943,2673.258,300.071,25,
1498,1,SBT2050,2,3,,2,12900,4.14998,0.07445,2677.853,300.071,25,
1498,1,SBT2050,2,3,,2,13115,4.14994,0.06923,2682.135,300.071,25,
1498,1,SBT2050,2,3,,2,13330,4.15013,0.06497,2686.141,300.071,25,
1498,1,SBT2050,2,3,,2,13545,4.150026,0.06069,2689.892,300.071,25.1,
1498,1,SBT2050,2,3,,2,13760,4.150014,0.05736,2693.419,300.071,25.2,
1498,1,SBT2050,2,3,,2,13975,4.14992,0.05472,2696.77,300.071,25.3,
1498,1,SBT2050,2,3,,2,14190,4.14997,0.05167,2699.953,300.071,25.4,
1498,1,SBT2050,2,3,,2,14405,4.150026,0.04938,2702.979,300.071,25.5,
1498,1,SBT2050,2,3,,2,14620,4.14985,0.045229,2705.807,300.071,25.2,
1498,1,SBT2050,2,3,,2,14835,4.15029,0.041821,2708.412,300.071,25.1,
1498,1,SBT2050,2,3,,2,15050,4.14987,0.040589,2710.878,300.071,25.1,
1498,1,SBT2050,2,3,,2,15265,4.150038,0.037992,2713.21,300.071,25.1,
1498,1,SBT2050,2,3,,2,15480,4.14998,0.03568,2715.401,300.071,25.1,
1498,1,SBT2050,2,3,,2,15695,4.14967,0.034126,2717.487,300.071,25.1,
1498,1,SBT2050,2,3,,2,15910,4.14994,0.032201,2719.443,300.071,25.1,
1498,1,SBT2050,2,3,,2,16125,4.14993,0.030469,2721.324,300.071,25.1,
1498,1,SBT2050,2,3,,2,16340,4.15007,0.029252,2723.098,300.071,25.1,
1498,1,SBT2050,2,3,,2,16555,4.150002,0.027217,2724.791,300.071,25.1,
1498,1,SBT2050,2,3,,2,16770,4.14989,0.026013,2726.384,300.071,25.1,
1498,1,SBT2050,2,3,,2,16985,4.14992,0.024857,2727.906,300.071,25.1,
1498,1,SBT2050,2,3,,2,17200,4.15011,0.023628,2729.361,300.071,25.1,
1498,1,SBT2050,2,3,,2,17415,4.1501,0.022668,2730.742,300.071,25.1,
1498,1,SBT2050,2,3,,2,17630,4.150002,0.021905,2732.063,300.071,25.1,
1498,1,SBT2050,2,3,,2,17845,4.15007,0.020788,2733.326,300.071,25.1,
1498,1,SBT2050,2,3,,2,18060,4.14988,0.019707,2734.521,300.071,25.2,
1498,1,SBT2050,2,3,,2,18275,4.15024,0.018296,2735.672,300.071,25.1,
1498,1,SBT2050,2,3,,2,18490,4.15012,0.017644,2736.778,300.071,25.1,
1498,1,SBT2050,2,3,,2,18705,4.150038,0.016667,2737.827,300.071,25.1,
1498,1,SBT2050,2,3,,2,18920,4.150038,0.016615,2738.849,300.071,25.1,
1498,1,SBT2050,2,3,,2,19135,4.14999,0.01613,2739.816,300.071,25.2,
1498,1,SBT2050,2,3,,2,19350,4.15006,0.015054,2740.756,300.071,25.1,
1498,1,SBT2050,2,3,,2,19565,4.14995,0.014566,2741.64,300.071,25.1,
1498,1,SBT2050,2,3,,2,19780,4.150038,0.013716,2742.493,300.071,25.1,
1498,1,SBT2050,2,3,,2,19995,4.14997,0.013464,2743.303,300.071,25.1,
1498,1,SBT2050,2,3,,2,20210,4.15009,0.013041,2744.094,300.071,25.1,
1498,1,SBT2050,2,3,,2,20425,4.150026,0.011999,2744.84,300.071,25.1,
1498,1,SBT2050,2,3,,2,20640,4.14975,0.011897,2745.566,300.071,25.2,
1498,1,SBT2050,2,3,,2,20855,4.14981,0.011497,2746.267,300.071,25.1,
1498,1,SBT2050,2,3,,2,21070,4.14997,0.010779,2746.94,300.071,25.1,
1498,1,SBT2050,2,3,,2,21285,4.15011,0.010676,2747.582,300.071,25.1,
1498,1,SBT2050,2,3,,3,21499,4.147198,0,2747.72,300.071,25.1,
1498,1,SBT2050,2,3,,3,21714,4.146104,0,2747.72,300.071,25.1,
1498,1,SBT2050,2,3,,3,21929,4.14575,0,2747.72,300.071,25.1,
1498,1,SBT2050,2,3,,3,22144,4.14535,0,2747.72,300.071,25.2,
1498,1,SBT2050,2,3,,3,22359,4.14504,0,2747.72,300.071,25.1,
1498,1,SBT2050,2,3,,3,22574,4.14463,0,2747.72,300.071,25.1,
1498,1,SBT2050,2,3,,3,22789,4.14439,0,2747.72,300.071,25.1,
1498,1,SBT2050,2,3,,3,23004,4.14439,0,2747.72,300.071,25.1,
1498,1,SBT2050,2,3,,4,23218,3.79227,-2.9356,2747.72,369.607,26.2,
1498,1,SBT2050,2,3,,4,23433,3.757344,-2.9355,2747.72,544.948,28.5,
1498,1,SBT2050,2,3,,4,23648,3.71771,-2.9364,2747.72,720.288,29.2,
1498,1,SBT2050,2,3,,4,23863,3.66529,-2.9363,2747.72,895.629,29.3,
1498,1,SBT2050,2,3,,4,24078,3.60662,-2.9362,2747.72,1070.971,29.4,
1498,1,SBT2050,2,3,,4,24293,3.544326,-2.9359,2747.72,1246.311,29.4,
1498,1,SBT2050,2,3,,4,24508,3.48082,-2.9362,2747.72,1421.652,29.5,
1498,1,SBT2050,2,3,,4,24723,3.41939,-2.9361,2747.72,1596.994,29.6,
1498,1,SBT2050,2,3,,4,24938,3.360644,-2.9359,2747.72,1772.335,29.7,
1498,1,SBT2050,2,3,,4,25153,3.29931,-2.9357,2747.72,1947.677,30.1,
1498,1,SBT2050,2,3,,4,25368,3.227,-2.9357,2747.72,2123.018,30.4,
1498,1,SBT2050,2,3,,4,25583,3.13052,-2.9358,2747.72,2298.359,31,
1498,1,SBT2050,2,3,,4,25798,2.98948,-2.936,2747.72,2473.701,32.1,
1498,1,SBT2050,2,3,,4,26013,2.75717,-2.9361,2747.72,2649.041,33.9,
1498,1,SBT2050,2,3,,4,26228,2.4999,-1.869,2747.72,2804.889,36.4,
1498,1,SBT2050,2,3,,4,26443,2.499689,-0.9005,2747.72,2883.813,34.1,
1498,1,SBT2050,2,3,,4,26658,2.49993,-0.4934,2747.72,2923.331,31,
1498,1,SBT2050,2,3,,4,26873,2.499856,-0.34058,2747.72,2947.591,28.9,
1498,1,SBT2050,2,3,,4,27088,2.49976,-0.26562,2747.72,2965.486,27.7,
1498,1,SBT2050,2,3,,4,27303,2.4998,-0.21866,2747.72,2979.862,27,
1498,1,SBT2050,2,3,,4,27518,2.499999,-0.18424,2747.72,2991.855,26.6,
1498,1,SBT2050,2,3,,4,27733,2.49996,-0.15562,2747.72,3001.983,26.2,
1498,1,SBT2050,2,3,,4,27948,2.499856,-0.12965,2747.72,3010.49,26.1,
1498,1,SBT2050,2,3,,4,28163,2.49998,-0.10625,2747.72,3017.528,25.9,
1498,1,SBT2050,2,3,,4,28378,2.49992,-0.08556,2747.72,3023.245,25.7,
1498,1,SBT2050,2,3,,4,28593,2.50013,-0.06754,2747.72,3027.796,25.6,
1498,1,SBT2050,2,3,,4,28808,2.49996,-0.05304,2747.72,3031.374,25.6,
1498,1,SBT2050,2,3,,4,29023,2.49978,-0.043282,2747.72,3034.236,25.5,
1498,1,SBT2050,2,3,,4,29238,2.49999,-0.036498,2747.72,3036.609,25.4,
1498,1,SBT2050,2,3,,4,29453,2.49999,-0.031341,2747.72,3038.627,25.4,
1498,1,SBT2050,2,3,,4,29668,2.49995,-0.027055,2747.72,3040.364,25.4,
1498,1,SBT2050,2,3,,4,29883,2.50011,-0.023399,2747.72,3041.865,25.3,
1498,1,SBT2050,2,3,,4,30098,2.50011,-0.020292,2747.72,3043.166,25.3,
1498,1,SBT2050,2,3,,4,30313,2.499844,-0.017734,2747.72,3044.303,25.3,
1498,1,SBT2050,2,3,,4,30528,2.49989,-0.015529,2747.72,3045.303,25.2,
1498,1,SBT2050,2,3,,4,30743,2.49998,-0.013649,2747.72,3046.179,25.2,
1498,1,SBT2050,2,3,,4,30958,2.50007,-0.011818,2747.72,3046.941,25.2,
1498,1,SBT2050,2,3,,4,31173,2.50011,-0.010359,2747.72,3047.599,25.2,
1498,1,SBT2050,2,3,,5,31387,2.59755,0,2747.72,3047.661,25.2,
1498,1,SBT2050,2,3,,5,31602,2.658926,0,2747.72,3047.661,25.2,
1498,1,SBT2050,2,3,,5,31817,2.69683,0,2747.72,3047.661,25.2,
1498,1,SBT2050,2,3,,5,32032,2.7223,0,2747.72,3047.661,25.1,
1498,1,SBT2050,2,3,,5,32247,2.74117,0,2747.72,3047.661,25.1,
1498,1,SBT2050,2,3,,5,32462,2.75521,0,2747.72,3047.661,24.9,
1498,1,SBT2050,2,3,,5,32677,2.76601,0,2747.72,3047.661,24.8,
1498,1,SBT2050,2,3,,5,32892,2.77528,0,2747.72,3047.661,24.8,
1498,1,SBT2050,2,3,,5,32994.627,2.779466,-0.0001,2747.72,3047.661,,