File: ORRG/Test1570.csv
Request Year:,2018,,,,,,,,,,,,
Test:,1570,,,,,,,,,,,,
Test Description:,,,,,,,,,,,,,
TestRegime Name:,Dchg_1C,,,,,,,,,,,,
TestRegime Suffix:,SHP_LC,,,,,,,,,,,,
TestRegime CellSize:,18650,,,,,,,,,,,,
TestRegime Version:,1,,,,,,,,,,,,
Number Of Cells:,1,,,,,,,,,,,,
LotID:,,,,,,,,,,,,,
Lot Description:,,,,,,,,,,,,,
Date Made:,1/21/2003 12:00 AM,,,,,,,,,,,,
Origin:,Other,,,,,,,,,,,,
Requestor:,Admin,,,,,,,,,,,,
Product ID:,Default product,,,,,,,,,,,,
Storage Temp:,R.T./AMB,,,,,,,,,,,,
Storage Delay:,0 days,,,,,,,,,,,,
Test Temp:,R.T./AMB,,,,,,,,,,,,
Start Time:,4/26/2018 9:45 PM,,,,,,,,,,,,
End Time:,4/26/2018 10:36 PM,,,,,,,,,,,,
Operator Instructions:,,,,,,,,,,,,,
Test,Cell,Rack,Shelf,Position,Cell ID,Step,Total Time (Seconds),Voltage (V),Current (A),Charge Capacity (mAh),Discharge Capacity (mAh),TC1 (Â°C),
1570,1,SBT2050,2,3,,0,1,4.08817,0,0,0,32.8,
1570,1,SBT2050,2,3,,0,19,4.08546,0,0,0,32.8,
1570,1,SBT2050,2,3,,0,37,4.08263,0,0,0,32.7,
1570,1,SBT2050,2,3,,0,55,4.08061,0,0,0,32.6,
1570,1,SBT2050,2,3,,1,73,3.88055,-2.6999,0,9.749,32.7,
1570,1,SBT2050,2,3,,1,91,3.85421,-2.7001,0,23.248,32.7,
1570,1,SBT2050,2,3,,1,109,3.83845,-2.6999,0,36.748,32.7,
1570,1,SBT2050,2,3,,1,127,3.82691,-2.7001,0,50.248,32.7,
1570,1,SBT2050,2,3,,1,145,3.81755,-2.6997,0,63.747,32.6,
1570,1,SBT2050,2,3,,1,163,3.80942,-2.7001,0,77.247,32.5,
1570,1,SBT2050,2,3,,1,181,3.80195,-2.6999,0,90.747,32.4,
1570,1,SBT2050,2,3,,1,199,3.79492,-2.6999,0,104.247,32.3,
1570,1,SBT2050,2,3,,1,217,3.78801,-2.7001,0,117.746,32.2,
1570,1,SBT2050,2,3,,1,235,3.78139,-2.6999,0,131.246,32,
1570,1,SBT2050,2,3,,1,253,3.775,-2.7002,0,144.746,31.9,
1570,1,SBT2050,2,3,,1,271,3.7687,-2.7001,0,158.245,31.8,
1570,1,SBT2050,2,3,,1,289,3.762534,-2.7004,0,171.745,31.6,
1570,1,SBT2050,2,3,,1,307,3.75653,-2.6998,0,185.245,31.5,
1570,1,SBT2050,2,3,,1,325,3.75022,-2.6998,0,198.745,31.3,
1570,1,SBT2050,2,3,,1,343,3.74433,-2.6999,0,212.245,31.2,
1570,1,SBT2050,2,3,,1,361,3.73836,-2.7002,0,225.744,31.1,
1570,1,SBT2050,2,3,,1,379,3.73244,-2.6998,0,239.244,31,
1570,1,SBT2050,2,3,,1,397,3.72656,-2.7001,0,252.744,30.8,
1570,1,SBT2050,2,3,,1,415,3.72073,-2.6998,0,266.243,30.7,
1570,1,SBT2050,2,3,,1,433,3.7147,-2.7,0,279.743,30.6,
1570,1,SBT2050,2,3,,1,451,3.70896,-2.7,0,293.243,30.5,
1570,1,SBT2050,2,3,,1,469,3.70329,-2.7,0,306.743,30.4,
1570,1,SBT2050,2,3,,1,487,3.69736,-2.7,0,320.242,30.3,
1570,1,SBT2050,2,3,,1,505,3.69192,-2.7002,0,333.742,30.2,
1570,1,SBT2050,2,3,,1,523,3.68654,-2.6999,0,347.242,30.2,
1570,1,SBT2050,2,3,,1,541,3.68102,-2.7004,0,360.742,30.1,
1570,1,SBT2050,2,3,,1,559,3.67526,-2.6998,0,374.241,30,
1570,1,SBT2050,2,3,,1,577,3.67004,-2.7001,0,387.741,29.9,
1570,1,SBT2050,2,3,,1,595,3.6644,-2.6997,0,401.241,29.9,
1570,1,SBT2050,2,3,,1,613,3.659416,-2.6999,0,414.741,29.8,
1570,1,SBT2050,2,3,,1,631,3.65395,-2.7003,0,428.24,29.8,
1570,1,SBT2050,2,3,,1,649,3.64909,-2.7,0,441.74,29.7,
1570,1,SBT2050,2,3,,1,667,3.64365,-2.6998,0,455.24,29.6,
1570,1,SBT2050,2,3,,1,685,3.638164,-2.6997,0,468.739,29.6,
1570,1,SBT2050,2,3,,1,703,3.63312,-2.7,0,482.239,29.6,
1570,1,SBT2050,2,3,,1,721,3.62777,-2.6997,0,495.739,29.5,
1570,1,SBT2050,2,3,,1,739,3.622612,-2.7002,0,509.239,29.5,
1570,1,SBT2050,2,3,,1,757,3.61733,-2.6999,0,522.738,29.4,
1570,1,SBT2050,2,3,,1,775,3.61245,-2.7001,0,536.238,29.4,
1570,1,SBT2050,2,3,,1,793,3.607304,-2.6997,0,549.738,29.4,
1570,1,SBT2050,2,3,,1,811,3.60216,-2.6998,0,563.238,29.4,
1570,1,SBT2050,2,3,,1,829,3.5973,-2.7,0,576.737,29.4,
1570,1,SBT2050,2,3,,1,847,3.592372,-2.6999,0,590.237,29.3,
1570,1,SBT2050,2,3,,1,865,3.587196,-2.7,0,603.737,29.3,
1570,1,SBT2050,2,3,,1,883,3.58205,-2.7002,0,617.237,29.3,
1570,1,SBT2050,2,3,,1,901,3.5772,-2.7,0,630.736,29.3,
1570,1,SBT2050,2,3,,1,919,3.57199,-2.6997,0,644.236,29.3,
1570,1,SBT2050,2,3,,1,937,3.56692,-2.7001,0,657.736,29.3,
1570,1,SBT2050,2,3,,1,955,3.56205,-2.6995,0,671.236,29.3,
1570,1,SBT2050,2,3,,1,973,3.556756,-2.7002,0,684.735,29.3,
1570,1,SBT2050,2,3,,1,991,3.551332,-2.6997,0,698.235,29.2,
1570,1,SBT2050,2,3,,1,1009,3.54622,-2.6997,0,711.735,29.2,
1570,1,SBT2050,2,3,,1,1027,3.54143,-2.7,0,725.234,29.2,
1570,1,SBT2050,2,3,,1,1045,3.53648,-2.6995,0,738.734,29.2,
1570,1,SBT2050,2,3,,1,1063,3.53133,-2.6998,0,752.234,29.2,
1570,1,SBT2050,2,3,,1,1081,3.526,-2.6995,0,765.734,29.2,
1570,1,SBT2050,2,3,,1,1099,3.521168,-2.7,0,779.233,29.2,
1570,1,SBT2050,2,3,,1,1117,3.51614,-2.7003,0,792.733,29.2,
1570,1,SBT2050,2,3,,1,1135,3.51085,-2.6998,0,806.233,29.2,
1570,1,SBT2050,2,3,,1,1153,3.50588,-2.7,0,819.732,29.2,
1570,1,SBT2050,2,3,,1,1171,3.50084,-2.6998,0,833.232,29.2,
1570,1,SBT2050,2,3,,1,1189,3.49603,-2.6999,0,846.732,29.2,
1570,1,SBT2050,2,3,,1,1207,3.49074,-2.6997,0,860.232,29.2,
1570,1,SBT2050,2,3,,1,1225,3.48578,-2.6998,0,873.731,29.2,
1570,1,SBT2050,2,3,,1,1243,3.48087,-2.6996,0,887.231,29.2,
1570,1,SBT2050,2,3,,1,1261,3.47609,-2.6998,0,900.731,29.2,
1570,1,SBT2050,2,3,,1,1279,3.47101,-2.6998,0,914.231,29.2,
1570,1,SBT2050,2,3,,1,1297,3.46569,-2.6996,0,927.731,29.2,
1570,1,SBT2050,2,3,,1,1315,3.46075,-2.6998,0,941.23,29.2,
1570,1,SBT2050,2,3,,1,1333,3.45592,-2.6999,0,954.73,29.2,
1570,1,SBT2050,2,3,,1,1351,3.45104,-2.7001,0,968.23,29.2,
1570,1,SBT2050,2,3,,1,1369,3.4461,-2.7001,0,981.729,29.2,
1570,1,SBT2050,2,3,,1,1387,3.44133,-2.6999,0,995.229,29.2,
1570,1,SBT2050,2,3,,1,1405,3.43635,-2.6999,0,1008.729,29.2,
1570,1,SBT2050,2,3,,1,1423,3.43145,-2.6997,0,1022.228,29.2,
1570,1,SBT2050,2,3,,1,1441,3.4264,-2.7,0,1035.728,29.2,
1570,1,SBT2050,2,3,,1,1459,3.42193,-2.7003,0,1049.228,29.2,
1570,1,SBT2050,2,3,,1,1477,3.41671,-2.6998,0,1062.727,29.2,
1570,1,SBT2050,2,3,,1,1495,3.41203,-2.7001,0,1076.227,29.2,
1570,1,SBT2050,2,3,,1,1513,3.40722,-2.7001,0,1089.727,29.2,
1570,1,SBT2050,2,3,,1,1531,3.40234,-2.6998,0,1103.226,29.2,
1570,1,SBT2050,2,3,,1,1549,3.397344,-2.7,0,1116.726,29.2,
1570,1,SBT2050,2,3,,1,1567,3.392448,-2.6995,0,1130.226,29.2,
1570,1,SBT2050,2,3,,1,1585,3.387388,-2.6999,0,1143.726,29.3,
1570,1,SBT2050,2,3,,1,1603,3.38265,-2.6998,0,1157.226,29.3,
1570,1,SBT2050,2,3,,1,1621,3.37783,-2.6998,0,1170.725,29.2,
1570,1,SBT2050,2,3,,1,1639,3.37287,-2.6997,0,1184.225,29.3,
1570,1,SBT2050,2,3,,1,1657,3.36828,-2.6997,0,1197.725,29.2,
1570,1,SBT2050,2,3,,1,1675,3.36323,-2.6999,0,1211.225,29.3,
1570,1,SBT2050,2,3,,1,1693,3.35824,-2.7001,0,1224.724,29.3,
1570,1,SBT2050,2,3,,1,1711,3.353303,-2.7001,0,1238.224,29.3,
1570,1,SBT2050,2,3,,1,1729,3.34865,-2.6998,0,1251.724,29.3,
1570,1,SBT2050,2,3,,1,1747,3.34357,-2.7,0,1265.223,29.3,
1570,1,SBT2050,2,3,,1,1765,3.33883,-2.6999,0,1278.723,29.3,
1570,1,SBT2050,2,3,,1,1783,3.333737,-2.6997,0,1292.223,29.3,
1570,1,SBT2050,2,3,,1,1801,3.32863,-2.6997,0,1305.723,29.3,
1570,1,SBT2050,2,3,,1,1819,3.32345,-2.6997,0,1319.222,29.4,
1570,1,SBT2050,2,3,,1,1837,3.31863,-2.6997,0,1332.722,29.4,
1570,1,SBT2050,2,3,,1,1855,3.31322,-2.7001,0,1346.222,29.4,
1570,1,SBT2050,2,3,,1,1873,3.30823,-2.6997,0,1359.721,29.4,
1570,1,SBT2050,2,3,,1,1891,3.30294,-2.6997,0,1373.221,29.5,
1570,1,SBT2050,2,3,,1,1909,3.2976,-2.6999,0,1386.721,29.5,
1570,1,SBT2050,2,3,,1,1927,3.292629,-2.6996,0,1400.221,29.5,
1570,1,SBT2050,2,3,,1,1945,3.28681,-2.6999,0,1413.721,29.5,
1570,1,SBT2050,2,3,,1,1963,3.28161,-2.6994,0,1427.22,29.5,
1570,1,SBT2050,2,3,,1,1981,3.27603,-2.7,0,1440.72,29.6,
1570,1,SBT2050,2,3,,1,1999,3.27073,-2.7001,0,1454.22,29.6,
1570,1,SBT2050,2,3,,1,2017,3.26511,-2.6997,0,1467.719,29.6,
1570,1,SBT2050,2,3,,1,2035,3.25933,-2.6999,0,1481.219,29.7,
1570,1,SBT2050,2,3,,1,2053,3.25378,-2.6999,0,1494.719,29.7,
1570,1,SBT2050,2,3,,1,2071,3.24803,-2.6994,0,1508.219,29.7,
1570,1,SBT2050,2,3,,1,2089,3.24228,-2.6999,0,1521.719,29.7,
1570,1,SBT2050,2,3,,1,2107,3.23614,-2.7001,0,1535.218,29.8,
1570,1,SBT2050,2,3,,1,2125,3.23003,-2.7001,0,1548.718,29.8,
1570,1,SBT2050,2,3,,1,2143,3.223765,-2.7003,0,1562.218,29.8,
1570,1,SBT2050,2,3,,1,2161,3.21782,-2.7004,0,1575.718,29.8,
1570,1,SBT2050,2,3,,1,2179,3.21096,-2.7004,0,1589.217,29.9,
1570,1,SBT2050,2,3,,1,2197,3.2044,-2.6999,0,1602.717,29.9,
1570,1,SBT2050,2,3,,1,2215,3.198068,-2.7001,0,1616.217,30,
1570,1,SBT2050,2,3,,1,2233,3.19127,-2.6998,0,1629.717,30.1,
1570,1,SBT2050,2,3,,1,2251,3.18414,-2.6995,0,1643.217,30.1,
1570,1,SBT2050,2,3,,1,2269,3.17705,-2.6994,0,1656.716,30.1,
1570,1,SBT2050,2,3,,1,2287,3.16986,-2.6998,0,1670.216,30.2,
1570,1,SBT2050,2,3,,1,2305,3.16234,-2.7001,0,1683.716,30.2,
1570,1,SBT2050,2,3,,1,2323,3.154974,-2.6995,0,1697.216,30.3,
1570,1,SBT2050,2,3,,1,2341,3.147274,-2.7,0,1710.715,30.3,
1570,1,SBT2050,2,3,,1,2359,3.13896,-2.7001,0,1724.215,30.4,
1570,1,SBT2050,2,3,,1,2377,3.130633,-2.6998,0,1737.715,30.4,
1570,1,SBT2050,2,3,,1,2395,3.12238,-2.6999,0,1751.214,30.5,
1570,1,SBT2050,2,3,,1,2413,3.11348,-2.6997,0,1764.714,30.4,
1570,1,SBT2050,2,3,,1,2431,3.10456,-2.6998,0,1778.214,30.5,
1570,1,SBT2050,2,3,,1,2449,3.09523,-2.7,0,1791.714,30.6,
1570,1,SBT2050,2,3,,1,2467,3.08571,-2.6998,0,1805.213,30.7,
1570,1,SBT2050,2,3,,1,2485,3.07616,-2.6998,0,1818.713,30.7,
1570,1,SBT2050,2,3,,1,2503,3.06574,-2.6998,0,1832.213,30.8,
1570,1,SBT2050,2,3,,1,2521,3.05537,-2.6998,0,1845.712,30.9,
1570,1,SBT2050,2,3,,1,2539,3.044898,-2.7,0,1859.212,30.9,
1570,1,SBT2050,2,3,,1,2557,3.03349,-2.6998,0,1872.712,31,
1570,1,SBT2050,2,3,,1,2575,3.02202,-2.6997,0,1886.212,31.1,
1570,1,SBT2050,2,3,,1,2593,3.01009,-2.7,0,1899.712,31.2,
1570,1,SBT2050,2,3,,1,2611,2.99756,-2.7001,0,1913.211,31.3,
1570,1,SBT2050,2,3,,1,2629,2.98477,-2.6996,0,1926.711,31.4,
1570,1,SBT2050,2,3,,1,2647,2.971489,-2.6999,0,1940.211,31.5,
1570,1,SBT2050,2,3,,1,2665,2.95728,-2.7001,0,1953.711,31.5,
1570,1,SBT2050,2,3,,1,2683,2.941966,-2.7001,0,1967.211,31.7,
1570,1,SBT2050,2,3,,1,2701,2.926286,-2.6997,0,1980.71,31.7,
1570,1,SBT2050,2,3,,1,2719,2.90971,-2.6998,0,1994.21,31.8,
1570,1,SBT2050,2,3,,1,2737,2.891643,-2.6994,0,2007.71,31.9,
1570,1,SBT2050,2,3,,1,2755,2.87238,-2.6999,0,2021.209,32,
1570,1,SBT2050,2,3,,1,2773,2.85188,-2.7002,0,2034.709,32.2,
1570,1,SBT2050,2,3,,1,2791,2.82957,-2.6998,0,2048.209,32.3,
1570,1,SBT2050,2,3,,1,2809,2.805172,-2.7,0,2061.709,32.4,
1570,1,SBT2050,2,3,,1,2827,2.778452,-2.6998,0,2075.208,32.6,
1570,1,SBT2050,2,3,,1,2845,2.74943,-2.6996,0,2088.708,32.8,
1570,1,SBT2050,2,3,,1,2863,2.71752,-2.7002,0,2102.208,33,
1570,1,SBT2050,2,3,,1,2881,2.68236,-2.7,0,2115.708,33.2,
1570,1,SBT2050,2,3,,1,2899,2.64282,-2.6998,0,2129.207,33.4,
1570,1,SBT2050,2,3,,1,2917,2.598205,-2.6995,0,2142.707,33.7,
1570,1,SBT2050,2,3,,1,2935,2.54664,-2.7004,0,2156.207,33.9,
1570,1,SBT2050,2,3,,2,2952,2.940428,0,0,2166.812,34.3,
1570,1,SBT2050,2,3,,2,2970,3.19586,0,0,2166.812,34,
1570,1,SBT2050,2,3,,2,2988,3.24597,0,0,2166.812,33.5,
1570,1,SBT2050,2,3,,2,3006,3.27456,0,0,2166.812,33,
1570,1,SBT2050,2,3,,2,3009.139,3.27745,-9.9E-05,0,2166.812,,