File: ORRG/Test1586.csv
Request Year:,2018,,,,,,,,,,,,
Test:,1586,,,,,,,,,,,,
Test Description:,,,,,,,,,,,,,
TestRegime Name:,Aging_test caseB_1,,,,,,,,,,,,
TestRegime Suffix:,SHP_LC,,,,,,,,,,,,
TestRegime CellSize:,18650,,,,,,,,,,,,
TestRegime Version:,3,,,,,,,,,,,,
Number Of Cells:,1,,,,,,,,,,,,
LotID:,,,,,,,,,,,,,
Lot Description:,,,,,,,,,,,,,
Date Made:,1/21/2003 12:00 AM,,,,,,,,,,,,
Origin:,Other,,,,,,,,,,,,
Requestor:,Admin,,,,,,,,,,,,
Product ID:,Default product,,,,,,,,,,,,
Storage Temp:,R.T./AMB,,,,,,,,,,,,
Storage Delay:,0 days,,,,,,,,,,,,
Test Temp:,R.T./AMB,,,,,,,,,,,,
Start Time:,5/3/2018 2:10 AM,,,,,,,,,,,,
End Time:,5/3/2018 3:28 AM,,,,,,,,,,,,
Operator Instructions:,,,,,,,,,,,,,
Test,Cell,Rack,Shelf,Position,Cell ID,Step,Total Time (Seconds),Voltage (V),Current (A),Charge Capacity (mAh),Discharge Capacity (mAh),Trs (Â°C),
1586,1,SBT2050,2,3,,0,0.1,3.29593,0,0,0,,
1586,1,SBT2050,2,3,,0,24.6,3.29608,0,0,0,,
1586,1,SBT2050,2,3,,0,49.1,3.29607,0,0,0,,
1586,1,SBT2050,2,3,,0,73.6,3.29604,0,0,0,,
1586,1,SBT2050,2,3,,0,98.1,3.295826,0,0,0,,
1586,1,SBT2050,2,3,,0,122.6,3.295826,0,0,0,,
1586,1,SBT2050,2,3,,0,147.1,3.29592,0,0,0,,
1586,1,SBT2050,2,3,,0,171.6,3.296071,0,0,0,,
1586,1,SBT2050,2,3,,0,196.1,3.29595,0,0,0,,
1586,1,SBT2050,2,3,,0,220.6,3.29606,0,0,0,,
1586,1,SBT2050,2,3,,0,245.1,3.29587,0,0,0,,
1586,1,SBT2050,2,3,,0,269.6,3.29582,0,0,0,,
1586,1,SBT2050,2,3,,0,294.1,3.2961,0,0,0,,
1586,1,SBT2050,2,3,,0,318.6,3.2961,0,0,0,,
1586,1,SBT2050,2,3,,0,343.1,3.2959,0,0,0,,
1586,1,SBT2050,2,3,,0,367.6,3.29597,0,0,0,,
1586,1,SBT2050,2,3,,0,392.1,3.29607,0,0,0,,
1586,1,SBT2050,2,3,,0,416.6,3.29632,0,0,0,,
1586,1,SBT2050,2,3,,0,441.1,3.29608,0,0,0,,
1586,1,SBT2050,2,3,,0,465.6,3.29626,0,0,0,,
1586,1,SBT2050,2,3,,0,490.1,3.29605,0,0,0,,
1586,1,SBT2050,2,3,,0,514.6,3.29608,0,0,0,,
1586,1,SBT2050,2,3,,0,539.1,3.29622,0,0,0,,
1586,1,SBT2050,2,3,,0,563.6,3.29583,0,0,0,,
1586,1,SBT2050,2,3,,0,588.1,3.29582,0,0,0,,
1586,1,SBT2050,2,3,,0,612.6,3.295782,0,0,0,,
1586,1,SBT2050,2,3,,0,637.1,3.29585,0,0,0,,
1586,1,SBT2050,2,3,,0,661.6,3.29605,0,0,0,,
1586,1,SBT2050,2,3,,0,686.1,3.296,0,0,0,,
1586,1,SBT2050,2,3,,0,710.6,3.29609,0,0,0,,
1586,1,SBT2050,2,3,,0,735.1,3.29612,0,0,0,,
1586,1,SBT2050,2,3,,0,759.6,3.29615,0,0,0,,
1586,1,SBT2050,2,3,,0,784.1,3.29578,0,0,0,,
1586,1,SBT2050,2,3,,0,808.6,3.296124,0,0,0,,
1586,1,SBT2050,2,3,,0,833.1,3.295919,0,0,0,,
1586,1,SBT2050,2,3,,0,857.6,3.29616,0,0,0,,
1586,1,SBT2050,2,3,,0,882.1,3.296,0,0,0,,
1586,1,SBT2050,2,3,,0,906.6,3.29642,0,0,0,,
1586,1,SBT2050,2,3,,0,931.1,3.29609,0,0,0,,
1586,1,SBT2050,2,3,,0,955.6,3.29618,0,0,0,,
1586,1,SBT2050,2,3,,0,980.1,3.296006,0,0,0,,
1586,1,SBT2050,2,3,,0,1004.6,3.296038,0,0,0,,
1586,1,SBT2050,2,3,,0,1029.1,3.296047,0,0,0,,
1586,1,SBT2050,2,3,,0,1053.6,3.296179,0,0,0,,
1586,1,SBT2050,2,3,,0,1078.1,3.29606,0,0,0,,
1586,1,SBT2050,2,3,,0,1102.6,3.29589,0,0,0,,
1586,1,SBT2050,2,3,,0,1127.1,3.29597,0,0,0,,
1586,1,SBT2050,2,3,,0,1151.6,3.29587,0,0,0,,
1586,1,SBT2050,2,3,,0,1176.1,3.29574,0,0,0,,
1586,1,SBT2050,2,3,,0,1200.6,3.29583,0,0,0,,
1586,1,SBT2050,2,3,,0,1225.1,3.296343,0,0,0,,
1586,1,SBT2050,2,3,,0,1249.6,3.2962,0,0,0,,
1586,1,SBT2050,2,3,,0,1274.1,3.296148,0,0,0,,
1586,1,SBT2050,2,3,,0,1298.6,3.29613,0,0,0,,
1586,1,SBT2050,2,3,,0,1323.1,3.29606,0,0,0,,
1586,1,SBT2050,2,3,,0,1347.6,3.29617,0,0,0,,
1586,1,SBT2050,2,3,,0,1372.1,3.29608,0,0,0,,
1586,1,SBT2050,2,3,,0,1396.6,3.295944,0,0,0,,
1586,1,SBT2050,2,3,,0,1421.1,3.29598,0,0,0,,
1586,1,SBT2050,2,3,,0,1445.6,3.2959,0,0,0,,
1586,1,SBT2050,2,3,,0,1470.1,3.29595,0,0,0,,
1586,1,SBT2050,2,3,,0,1494.6,3.29626,0,0,0,,
1586,1,SBT2050,2,3,,0,1519.1,3.29608,0,0,0,,
1586,1,SBT2050,2,3,,0,1543.6,3.29588,0,0,0,,
1586,1,SBT2050,2,3,,0,1568.1,3.29586,0,0,0,,
1586,1,SBT2050,2,3,,0,1592.6,3.29614,0,0,0,,
1586,1,SBT2050,2,3,,0,1617.1,3.29625,0,0,0,,
1586,1,SBT2050,2,3,,0,1641.6,3.29602,0,0,0,,
1586,1,SBT2050,2,3,,0,1666.1,3.2961,0,0,0,,
1586,1,SBT2050,2,3,,0,1690.6,3.295819,0,0,0,,
1586,1,SBT2050,2,3,,0,1715.1,3.29597,0,0,0,,
1586,1,SBT2050,2,3,,0,1739.6,3.2961,0,0,0,,
1586,1,SBT2050,2,3,,0,1764.1,3.295926,0,0,0,,
1586,1,SBT2050,2,3,,0,1788.6,3.296141,0,0,0,,
1586,1,SBT2050,2,3,,7,1812.9,3.798472,7.233,11.827,0,,
1586,1,SBT2050,2,3,,7,1837.2,3.95505,8.329,70.289,0,,
1586,1,SBT2050,2,3,,7,1861.4,3.96722,7.751,124.29,0,,
1586,1,SBT2050,2,3,,7,1885.6,3.95936,7.282,174.722,0,,
1586,1,SBT2050,2,3,,7,1909.9,3.9449,6.909,222.562,0,,
1586,1,SBT2050,2,3,,7,1934.1,3.931498,6.645,268.104,0,,
1586,1,SBT2050,2,3,,7,1958.3,3.92172,6.446,312.092,0,,
1586,1,SBT2050,2,3,,7,1982.6,3.91573,6.291,355.084,0,,
1586,1,SBT2050,2,3,,7,2006.8,3.91248,6.162,396.946,0,,
1586,1,SBT2050,2,3,,7,2031,3.91145,6.046,438.007,0,37.6,
1586,1,SBT2050,2,3,,7,2055.2,3.911674,5.942,478.329,0,,
1586,1,SBT2050,2,3,,7,2079.5,3.91285,5.838,518.076,0,,
1586,1,SBT2050,2,3,,7,2103.7,3.91427,5.735,556.949,0,,
1586,1,SBT2050,2,3,,7,2127.9,3.91603,5.613,595.058,0,,
1586,1,SBT2050,2,3,,7,2152.2,3.918096,5.492,632.54,0,,
1586,1,SBT2050,2,3,,7,2176.4,3.92084,5.376,669.113,0,,
1586,1,SBT2050,2,3,,7,2200.6,3.92481,5.279,704.901,0,,
1586,1,SBT2050,2,3,,7,2224.9,3.92734,5.145,740.042,0,,
1586,1,SBT2050,2,3,,7,2249.1,3.9308,5.027,774.243,0,,
1586,1,SBT2050,2,3,,7,2273.3,3.9347,4.913,807.659,0,,
1586,1,SBT2050,2,3,,7,2297.6,3.93875,4.791,840.413,0,,
1586,1,SBT2050,2,3,,7,2321.8,3.942828,4.6824,872.24,0,,
1586,1,SBT2050,2,3,,7,2346,3.94662,4.5573,903.279,0,,
1586,1,SBT2050,2,3,,7,2370.2,3.9505,4.4453,933.532,0,,
1586,1,SBT2050,2,3,,7,2394.5,3.95491,4.329,963.151,0,,
1586,1,SBT2050,2,3,,7,2418.7,3.959306,4.2243,991.88,0,,
1586,1,SBT2050,2,3,,7,2442.9,3.96547,4.1571,1020.052,0,,
1586,1,SBT2050,2,3,,7,2467.2,3.97202,4.0932,1047.892,0,,
1586,1,SBT2050,2,3,,7,2491.4,3.97829,4.0215,1075.172,0,,
1586,1,SBT2050,2,3,,7,2515.6,3.98531,3.9615,1102.006,0,,
1586,1,SBT2050,2,3,,7,2539.9,3.99139,3.8906,1128.5,0,,
1586,1,SBT2050,2,3,,7,2564.1,3.9982,3.8256,1154.454,0,,
1586,1,SBT2050,2,3,,7,2588.3,4.00498,3.7692,1179.98,0,,
1586,1,SBT2050,2,3,,7,2612.6,4.011,3.7052,1205.189,0,,
1586,1,SBT2050,2,3,,7,2636.8,4.016964,3.6426,1229.88,0,,
1586,1,SBT2050,2,3,,7,2661,4.02309,3.5764,1254.135,0,,
1586,1,SBT2050,2,3,,7,2685.2,4.02938,3.5151,1278.001,0,,
1586,1,SBT2050,2,3,,7,2709.5,4.03509,3.4562,1301.516,0,,
1586,1,SBT2050,2,3,,7,2733.7,4.04084,3.3975,1324.534,0,,
1586,1,SBT2050,2,3,,7,2757.9,4.04658,3.3327,1347.142,0,,
1586,1,SBT2050,2,3,,7,2782.2,4.05164,3.2636,1369.406,0,,
1586,1,SBT2050,2,3,,7,2806.4,4.05685,3.2077,1391.158,0,,
1586,1,SBT2050,2,3,,7,2830.6,4.06245,3.1573,1412.562,0,,
1586,1,SBT2050,2,3,,7,2854.9,4.0672,3.091,1433.628,0,,
1586,1,SBT2050,2,3,,7,2879.1,4.07166,3.026,1454.183,0,,
1586,1,SBT2050,2,3,,7,2903.3,4.07653,2.9812,1474.386,0,,
1586,1,SBT2050,2,3,,7,2927.6,4.081922,2.9313,1494.324,0,,
1586,1,SBT2050,2,3,,7,2951.8,4.0867,2.88,1513.867,0,,
1586,1,SBT2050,2,3,,7,2976,4.09248,2.8439,1533.117,0,,
1586,1,SBT2050,2,3,,7,3000.2,4.09725,2.7922,1552.08,0,,
1586,1,SBT2050,2,3,,7,3024.5,4.10218,2.7456,1570.772,0,,
1586,1,SBT2050,2,3,,7,3048.7,4.10723,2.7018,1589.067,0,,
1586,1,SBT2050,2,3,,7,3072.9,4.11211,2.6642,1607.084,0,,
1586,1,SBT2050,2,3,,7,3097.2,4.11697,2.6183,1624.918,0,,
1586,1,SBT2050,2,3,,7,3121.4,4.12107,2.5693,1642.379,0,,
1586,1,SBT2050,2,3,,7,3145.6,4.1268,2.5469,1659.566,0,,
1586,1,SBT2050,2,3,,7,3169.9,4.13054,2.4967,1676.577,0,,
1586,1,SBT2050,2,3,,7,3194.1,4.1351,2.4581,1693.224,0,,
1586,1,SBT2050,2,3,,7,3218.3,4.13928,2.4178,1709.601,0,,
1586,1,SBT2050,2,3,,7,3242.6,4.143712,2.3788,1725.786,0,,
1586,1,SBT2050,2,3,,7,3266.8,4.14833,2.3443,1741.675,0,,
1586,1,SBT2050,2,3,,7,3291,4.15261,2.3097,1757.307,0,,
1586,1,SBT2050,2,3,,7,3315.2,4.156668,2.266,1772.685,0,,
1586,1,SBT2050,2,3,,7,3339.5,4.16065,2.2317,1787.887,0,,
1586,1,SBT2050,2,3,,7,3363.7,4.165354,2.2055,1802.805,0,,
1586,1,SBT2050,2,3,,7,3387.9,4.16976,2.1742,1817.502,0,,
1586,1,SBT2050,2,3,,7,3412.2,4.17415,2.141,1832.061,0,,
1586,1,SBT2050,2,3,,7,3436.4,4.17786,2.1079,1846.312,0,,
1586,1,SBT2050,2,3,,7,3460.6,4.181282,2.07,1860.343,0,,
1586,1,SBT2050,2,3,,7,3484.9,4.1858,2.0408,1874.199,0,,
1586,1,SBT2050,2,3,,7,3509.1,4.18943,2.0076,1887.804,0,,
1586,1,SBT2050,2,3,,7,3533.3,4.193258,1.9742,1901.183,0,,
1586,1,SBT2050,2,3,,7,3557.6,4.19671,1.9431,1914.403,0,,
1586,1,SBT2050,2,3,,7,3581.8,4.20103,1.917,1927.362,0,,
1586,1,SBT2050,2,3,,7,3606,4.20472,1.886,1940.116,0,,
1586,1,SBT2050,2,3,,7,3630.2,4.208656,1.8555,1952.69,0,,
1586,1,SBT2050,2,3,,7,3654.5,4.21215,1.8258,1965.118,0,,
1586,1,SBT2050,2,3,,7,3678.7,4.21611,1.8038,1977.32,0,,
1586,1,SBT2050,2,3,,7,3702.9,4.21986,1.7759,1989.336,0,,
1586,1,SBT2050,2,3,,7,3727.2,4.22328,1.7458,2001.212,0,,
1586,1,SBT2050,2,3,,7,3751.4,4.22754,1.7263,2012.881,0,,
1586,1,SBT2050,2,3,,7,3775.6,4.23101,1.6977,2024.365,0,,
1586,1,SBT2050,2,3,,7,3799.9,4.234254,1.6691,2035.714,0,,
1586,1,SBT2050,2,3,,7,3824.1,4.23765,1.6401,2046.836,0,,
1586,1,SBT2050,2,3,,7,3848.3,4.240956,1.613,2057.791,0,,
1586,1,SBT2050,2,3,,7,3872.6,4.24497,1.5949,2068.614,0,,
1586,1,SBT2050,2,3,,7,3896.8,4.2482,1.567,2079.229,0,,
1586,1,SBT2050,2,3,,7,3921,4.25186,1.5493,2089.703,0,,
1586,1,SBT2050,2,3,,7,3945.2,4.25629,1.5294,2100.048,0,,
1586,1,SBT2050,2,3,,7,3969.5,4.25891,1.5049,2110.277,0,,
1586,1,SBT2050,2,3,,7,3993.7,4.26244,1.4879,2120.336,0,,
1586,1,SBT2050,2,3,,7,4017.9,4.26591,1.4705,2130.277,0,,
1586,1,SBT2050,2,3,,7,4042.2,4.26927,1.4522,2140.128,0,,
1586,1,SBT2050,2,3,,7,4066.4,4.27197,1.4279,2149.802,0,,
1586,1,SBT2050,2,3,,7,4090.6,4.27529,1.4115,2159.344,0,,
1586,1,SBT2050,2,3,,7,4114.9,4.278038,1.3943,2168.812,0,,
1586,1,SBT2050,2,3,,7,4139.1,4.28073,1.377,2178.126,0,,
1586,1,SBT2050,2,3,,7,4163.3,4.28335,1.3601,2187.327,0,,
1586,1,SBT2050,2,3,,7,4187.6,4.28561,1.3432,2196.46,0,,
1586,1,SBT2050,2,3,,7,4211.8,4.28796,1.3301,2205.451,0,,
1586,1,SBT2050,2,3,,7,4236,4.2896,1.3144,2214.341,0,28.7,
1586,1,SBT2050,2,3,,7,4260.257,4.29102,1.303,2223.167,0,,
1586,1,SBT2050,2,3,,7,4284.5,4.29269,1.2914,2231.901,0,,
1586,1,SBT2050,2,3,,7,4308.7,4.29379,1.2813,2240.541,0,,
1586,1,SBT2050,2,3,,7,4332.9,4.2947,1.272,2249.12,0,,
1586,1,SBT2050,2,3,,7,4357.2,4.29489,1.2624,2257.673,0,,
1586,1,SBT2050,2,3,,7,4381.4,4.29501,1.2548,2266.14,0,,
1586,1,SBT2050,2,3,,7,4405.6,4.29553,1.2537,2274.571,0,,
1586,1,SBT2050,2,3,,7,4429.9,4.295438,1.2509,2283.016,0,,
1586,1,SBT2050,2,3,,7,4454.1,4.29448,1.2504,2291.409,0,,
1586,1,SBT2050,2,3,,7,4478.3,4.29343,1.2478,2299.808,0,,
1586,1,SBT2050,2,3,,7,4502.6,4.29247,1.2551,2308.255,0,,
1586,1,SBT2050,2,3,,7,4526.8,4.29105,1.2557,2316.697,0,,
1586,1,SBT2050,2,3,,7,4551,4.29118,1.2791,2325.214,0,31.1,
1586,1,SBT2050,2,3,,7,4575.3,4.29333,1.3233,2333.968,0,,
1586,1,SBT2050,2,3,,7,4599.5,4.302722,1.431,2343.2,0,,
1586,1,SBT2050,2,3,,7,4623.7,4.31934,1.5925,2353.355,0,,
1586,1,SBT2050,2,3,,7,4647.9,4.339764,1.7876,2364.724,0,,
1586,1,SBT2050,2,3,,7,4672.2,4.36651,2.0579,2377.682,0,,
1586,1,SBT2050,2,3,,7,4696.4,4.396422,2.362,2392.472,0,,
1586,1,SBT2050,2,3,,7,4698.989,4.40003,2.4076,2394.184,0,,