File: ORRG/Test1560.csv
Request Year:,2018,,,,,,,,,,,,
Test:,1560,,,,,,,,,,,,
Test Description:,,,,,,,,,,,,,
TestRegime Name:,Aging_test caseB_1,,,,,,,,,,,,
TestRegime Suffix:,SHP_LC,,,,,,,,,,,,
TestRegime CellSize:,18650,,,,,,,,,,,,
TestRegime Version:,3,,,,,,,,,,,,
Number Of Cells:,1,,,,,,,,,,,,
LotID:,,,,,,,,,,,,,
Lot Description:,,,,,,,,,,,,,
Date Made:,1/21/2003 12:00 AM,,,,,,,,,,,,
Origin:,Other,,,,,,,,,,,,
Requestor:,Admin,,,,,,,,,,,,
Product ID:,Default product,,,,,,,,,,,,
Storage Temp:,R.T./AMB,,,,,,,,,,,,
Storage Delay:,0 days,,,,,,,,,,,,
Test Temp:,R.T./AMB,,,,,,,,,,,,
Start Time:,4/26/2018 8:21 PM,,,,,,,,,,,,
End Time:,4/26/2018 9:40 PM,,,,,,,,,,,,
Operator Instructions:,,,,,,,,,,,,,
Test,Cell,Rack,Shelf,Position,Cell ID,Step,Total Time (Seconds),Voltage (V),Current (A),Charge Capacity (mAh),Discharge Capacity (mAh),Trs (Â°C),
1560,1,SBT2050,2,3,,0,0.1,3.31056,0,0,0,,
1560,1,SBT2050,2,3,,0,25.1,3.31084,0,0,0,,
1560,1,SBT2050,2,3,,0,50.1,3.310768,0,0,0,,
1560,1,SBT2050,2,3,,0,75.1,3.3106,0,0,0,,
1560,1,SBT2050,2,3,,0,100.1,3.31069,0,0,0,,
1560,1,SBT2050,2,3,,0,125.1,3.31075,0,0,0,,
1560,1,SBT2050,2,3,,0,150.1,3.31113,0,0,0,,
1560,1,SBT2050,2,3,,0,175.1,3.31089,0,0,0,,
1560,1,SBT2050,2,3,,0,200.1,3.31089,0,0,0,,
1560,1,SBT2050,2,3,,0,225.1,3.31122,0,0,0,,
1560,1,SBT2050,2,3,,0,250.1,3.31088,0,0,0,,
1560,1,SBT2050,2,3,,0,275.1,3.31092,0,0,0,,
1560,1,SBT2050,2,3,,0,300.1,3.31092,0,0,0,,
1560,1,SBT2050,2,3,,0,325.1,3.31132,0,0,0,,
1560,1,SBT2050,2,3,,0,350.1,3.311349,0,0,0,,
1560,1,SBT2050,2,3,,0,375.1,3.31162,0,0,0,,
1560,1,SBT2050,2,3,,0,400.1,3.3116,0,0,0,,
1560,1,SBT2050,2,3,,0,425.1,3.31154,0,0,0,,
1560,1,SBT2050,2,3,,0,450.1,3.31161,0,0,0,,
1560,1,SBT2050,2,3,,0,475.1,3.31138,0,0,0,,
1560,1,SBT2050,2,3,,0,500.1,3.31153,0,0,0,,
1560,1,SBT2050,2,3,,0,525.1,3.31157,0,0,0,,
1560,1,SBT2050,2,3,,0,550.1,3.3117,0,0,0,,
1560,1,SBT2050,2,3,,0,575.1,3.31162,0,0,0,,
1560,1,SBT2050,2,3,,0,600.1,3.3117,0,0,0,,
1560,1,SBT2050,2,3,,0,625.1,3.31177,0,0,0,,
1560,1,SBT2050,2,3,,0,650.1,3.31146,0,0,0,,
1560,1,SBT2050,2,3,,0,675.1,3.31193,0,0,0,,
1560,1,SBT2050,2,3,,0,700.1,3.31202,0,0,0,,
1560,1,SBT2050,2,3,,0,725.1,3.31207,0,0,0,,
1560,1,SBT2050,2,3,,0,750.1,3.312056,0,0,0,,
1560,1,SBT2050,2,3,,0,775.1,3.31198,0,0,0,,
1560,1,SBT2050,2,3,,0,800.1,3.31185,0,0,0,,
1560,1,SBT2050,2,3,,0,825.1,3.311899,0,0,0,,
1560,1,SBT2050,2,3,,0,850.1,3.311905,0,0,0,,
1560,1,SBT2050,2,3,,0,875.1,3.31198,0,0,0,,
1560,1,SBT2050,2,3,,0,900.1,3.312164,0,0,0,,
1560,1,SBT2050,2,3,,0,925.1,3.31218,0,0,0,,
1560,1,SBT2050,2,3,,0,950.1,3.31199,0,0,0,,
1560,1,SBT2050,2,3,,0,975.1,3.31208,0,0,0,,
1560,1,SBT2050,2,3,,0,1000.1,3.3122,0,0,0,,
1560,1,SBT2050,2,3,,0,1025.1,3.31234,0,0,0,,
1560,1,SBT2050,2,3,,0,1050.1,3.3122,0,0,0,,
1560,1,SBT2050,2,3,,0,1075.1,3.31193,0,0,0,,
1560,1,SBT2050,2,3,,0,1100.1,3.31203,0,0,0,,
1560,1,SBT2050,2,3,,0,1125.1,3.31248,0,0,0,,
1560,1,SBT2050,2,3,,0,1150.1,3.31242,0,0,0,,
1560,1,SBT2050,2,3,,0,1175.1,3.31232,0,0,0,,
1560,1,SBT2050,2,3,,0,1200.1,3.31258,0,0,0,,
1560,1,SBT2050,2,3,,0,1225.1,3.312426,0,0,0,,
1560,1,SBT2050,2,3,,0,1250.1,3.312339,0,0,0,,
1560,1,SBT2050,2,3,,0,1275.1,3.312554,0,0,0,,
1560,1,SBT2050,2,3,,0,1300.1,3.312345,0,0,0,,
1560,1,SBT2050,2,3,,0,1325.1,3.3125,0,0,0,,
1560,1,SBT2050,2,3,,0,1350.1,3.31265,0,0,0,,
1560,1,SBT2050,2,3,,0,1375.1,3.31266,0,0,0,,
1560,1,SBT2050,2,3,,0,1400.1,3.31257,0,0,0,,
1560,1,SBT2050,2,3,,0,1425.1,3.31259,0,0,0,,
1560,1,SBT2050,2,3,,0,1450.1,3.312605,0,0,0,,
1560,1,SBT2050,2,3,,0,1475.1,3.312628,0,0,0,,
1560,1,SBT2050,2,3,,0,1500.1,3.31284,0,0,0,,
1560,1,SBT2050,2,3,,0,1525.1,3.31297,0,0,0,,
1560,1,SBT2050,2,3,,0,1550.1,3.31293,0,0,0,,
1560,1,SBT2050,2,3,,0,1575.1,3.31295,0,0,0,,
1560,1,SBT2050,2,3,,0,1600.1,3.31279,0,0,0,,
1560,1,SBT2050,2,3,,0,1625.1,3.31306,0,0,0,,
1560,1,SBT2050,2,3,,0,1650.1,3.31307,0,0,0,,
1560,1,SBT2050,2,3,,0,1675.1,3.31298,0,0,0,,
1560,1,SBT2050,2,3,,0,1700.1,3.31308,0,0,0,,
1560,1,SBT2050,2,3,,0,1725.1,3.313071,0,0,0,,
1560,1,SBT2050,2,3,,0,1750.1,3.31327,0,0,0,,
1560,1,SBT2050,2,3,,0,1775.1,3.31298,0,0,0,,
1560,1,SBT2050,2,3,,5,1800.1,3.313005,0,0,0,,
1560,1,SBT2050,2,3,,7,1824.8,3.98991,9.18,40.505,0,,
1560,1,SBT2050,2,3,,7,1849.5,4.01419,8.024,98.503,0,,
1560,1,SBT2050,2,3,,7,1874.3,4.01009,7.478,151.763,0,,
1560,1,SBT2050,2,3,,7,1899,3.99083,7.06,201.553,0,32.8,
1560,1,SBT2050,2,3,,7,1923.7,3.971742,6.747,248.892,0,,
1560,1,SBT2050,2,3,,7,1948.4,3.95816,6.525,294.398,0,,
1560,1,SBT2050,2,3,,7,1973.2,3.94924,6.349,338.725,0,,
1560,1,SBT2050,2,3,,7,1997.9,3.94411,6.209,381.8,0,,
1560,1,SBT2050,2,3,,7,2022.6,3.94129,6.078,423.934,0,,
1560,1,SBT2050,2,3,,7,2047.3,3.94053,5.963,465.264,0,,
1560,1,SBT2050,2,3,,7,2072.1,3.9418,5.856,505.945,0,,
1560,1,SBT2050,2,3,,7,2096.8,3.94369,5.744,545.733,0,,
1560,1,SBT2050,2,3,,7,2121.5,3.94602,5.624,584.726,0,,
1560,1,SBT2050,2,3,,7,2146.2,3.94905,5.508,622.943,0,,
1560,1,SBT2050,2,3,,7,2171,3.952086,5.384,660.452,0,,
1560,1,SBT2050,2,3,,7,2195.7,3.95626,5.265,697.003,0,,
1560,1,SBT2050,2,3,,7,2220.4,3.96025,5.144,732.682,0,,
1560,1,SBT2050,2,3,,7,2245.1,3.96433,5.021,767.56,0,,
1560,1,SBT2050,2,3,,7,2269.9,3.96816,4.89,801.695,0,,
1560,1,SBT2050,2,3,,7,2294.6,3.97222,4.762,834.831,0,,
1560,1,SBT2050,2,3,,7,2319.3,3.976966,4.6578,867.164,0,,
1560,1,SBT2050,2,3,,7,2344,3.98075,4.5364,898.67,0,,
1560,1,SBT2050,2,3,,7,2368.8,3.98513,4.4195,929.528,0,,
1560,1,SBT2050,2,3,,7,2393.5,3.98932,4.3021,959.454,0,,
1560,1,SBT2050,2,3,,7,2418.2,3.99335,4.2012,988.603,0,,
1560,1,SBT2050,2,3,,7,2442.9,3.999904,4.1347,1017.222,0,,
1560,1,SBT2050,2,3,,7,2467.7,4.00653,4.0689,1045.486,0,,
1560,1,SBT2050,2,3,,7,2492.4,4.01302,3.9987,1073.169,0,,
1560,1,SBT2050,2,3,,7,2517.1,4.01944,3.9269,1100.357,0,,
1560,1,SBT2050,2,3,,7,2541.8,4.02601,3.858,1127.079,0,,
1560,1,SBT2050,2,3,,7,2566.6,4.03236,3.7905,1153.439,0,,
1560,1,SBT2050,2,3,,7,2591.3,4.03833,3.7274,1179.223,0,,
1560,1,SBT2050,2,3,,7,2616,4.044228,3.6546,1204.544,0,,
1560,1,SBT2050,2,3,,7,2640.7,4.05068,3.5959,1229.409,0,,
1560,1,SBT2050,2,3,,7,2665.5,4.05632,3.527,1253.935,0,,
1560,1,SBT2050,2,3,,7,2690.2,4.0619,3.4685,1277.935,0,,
1560,1,SBT2050,2,3,,7,2714.9,4.06705,3.4024,1301.466,0,,
1560,1,SBT2050,2,3,,7,2739.6,4.072086,3.3352,1324.583,0,,
1560,1,SBT2050,2,3,,7,2764.4,4.07699,3.2697,1347.327,0,,
1560,1,SBT2050,2,3,,7,2789.1,4.081714,3.2049,1369.553,0,,
1560,1,SBT2050,2,3,,7,2813.8,4.08656,3.1463,1391.357,0,,
1560,1,SBT2050,2,3,,7,2838.5,4.09158,3.0879,1412.712,0,,
1560,1,SBT2050,2,3,,7,2863.3,4.09488,3.0031,1433.684,0,,
1560,1,SBT2050,2,3,,7,2888,4.09927,2.9488,1454.131,0,,
1560,1,SBT2050,2,3,,7,2912.7,4.10428,2.9089,1474.214,0,,
1560,1,SBT2050,2,3,,7,2937.4,4.1093,2.8579,1493.961,0,,
1560,1,SBT2050,2,3,,7,2962.2,4.11363,2.8049,1513.441,0,,
1560,1,SBT2050,2,3,,7,2986.9,4.11879,2.7609,1532.526,0,,
1560,1,SBT2050,2,3,,7,3011.6,4.12274,2.71,1551.296,0,,
1560,1,SBT2050,2,3,,7,3036.3,4.12825,2.6797,1569.803,0,,
1560,1,SBT2050,2,3,,7,3061.1,4.133756,2.6466,1588.147,0,,
1560,1,SBT2050,2,3,,7,3085.8,4.13778,2.5945,1606.089,0,,
1560,1,SBT2050,2,3,,7,3110.5,4.142636,2.5543,1623.735,0,,
1560,1,SBT2050,2,3,,7,3135.2,4.14696,2.503,1641.084,0,,
1560,1,SBT2050,2,3,,7,3160,4.151,2.4625,1658.196,0,,
1560,1,SBT2050,2,3,,7,3184.7,4.155858,2.4276,1674.987,0,,
1560,1,SBT2050,2,3,,7,3209.4,4.16008,2.3949,1691.518,0,,
1560,1,SBT2050,2,3,,7,3234.1,4.16401,2.3449,1707.742,0,,
1560,1,SBT2050,2,3,,7,3258.9,4.16838,2.3118,1723.765,0,,
1560,1,SBT2050,2,3,,7,3283.6,4.17245,2.2715,1739.484,0,,
1560,1,SBT2050,2,3,,7,3308.3,4.17668,2.2384,1754.958,0,,
1560,1,SBT2050,2,3,,7,3333,4.18085,2.1996,1770.194,0,,
1560,1,SBT2050,2,3,,7,3357.8,4.18461,2.1659,1785.235,0,,
1560,1,SBT2050,2,3,,7,3382.5,4.18895,2.1335,1799.982,0,,
1560,1,SBT2050,2,3,,7,3407.2,4.193108,2.1007,1814.493,0,,
1560,1,SBT2050,2,3,,7,3431.9,4.19727,2.0674,1828.776,0,,
1560,1,SBT2050,2,3,,7,3456.7,4.200848,2.0344,1842.886,0,,
1560,1,SBT2050,2,3,,7,3481.4,4.20444,1.9976,1856.715,0,,
1560,1,SBT2050,2,3,,7,3506.1,4.20842,1.9678,1870.312,0,,
1560,1,SBT2050,2,3,,7,3530.895,4.211986,1.9277,1883.726,0,,
1560,1,SBT2050,2,3,,7,3555.6,4.21584,1.8975,1896.871,0,,
1560,1,SBT2050,2,3,,7,3580.3,4.21945,1.8659,1909.79,0,,
1560,1,SBT2050,2,3,,7,3605,4.22344,1.8459,1922.525,0,,
1560,1,SBT2050,2,3,,7,3629.8,4.22699,1.8152,1935.124,0,,
1560,1,SBT2050,2,3,,7,3654.5,4.23033,1.7853,1947.461,0,,
1560,1,SBT2050,2,3,,7,3679.2,4.23373,1.7561,1959.632,0,,
1560,1,SBT2050,2,3,,7,3703.9,4.2375,1.725,1971.591,0,,
1560,1,SBT2050,2,3,,7,3728.7,4.240876,1.6974,1983.401,0,,
1560,1,SBT2050,2,3,,7,3753.4,4.24475,1.6769,1994.97,0,,
1560,1,SBT2050,2,3,,7,3778.1,4.24775,1.6475,2006.371,0,,
1560,1,SBT2050,2,3,,7,3802.8,4.251424,1.6187,2017.596,0,,
1560,1,SBT2050,2,3,,7,3827.6,4.25518,1.6007,2028.684,0,,
1560,1,SBT2050,2,3,,7,3852.3,4.25823,1.5742,2039.577,0,,
1560,1,SBT2050,2,3,,7,3877,4.2614,1.5541,2050.304,0,,
1560,1,SBT2050,2,3,,7,3901.7,4.26454,1.5262,2060.881,0,,
1560,1,SBT2050,2,3,,7,3926.5,4.26784,1.5029,2071.333,0,,
1560,1,SBT2050,2,3,,7,3951.2,4.27047,1.4818,2081.565,0,,
1560,1,SBT2050,2,3,,7,3975.9,4.27416,1.4655,2091.677,0,,
1560,1,SBT2050,2,3,,7,4000.6,4.277396,1.4488,2101.674,0,,
1560,1,SBT2050,2,3,,7,4025.4,4.27996,1.4227,2111.55,0,,
1560,1,SBT2050,2,3,,7,4050.1,4.283076,1.4059,2121.257,0,,
1560,1,SBT2050,2,3,,7,4074.8,4.28652,1.3926,2130.862,0,,
1560,1,SBT2050,2,3,,7,4099.5,4.28864,1.3733,2140.34,0,,
1560,1,SBT2050,2,3,,7,4124.3,4.29146,1.3569,2149.74,0,,
1560,1,SBT2050,2,3,,7,4149,4.29379,1.342,2158.995,0,,
1560,1,SBT2050,2,3,,7,4173.7,4.295954,1.3251,2168.145,0,,
1560,1,SBT2050,2,3,,7,4198.4,4.29801,1.3121,2177.188,0,,
1560,1,SBT2050,2,3,,7,4223.2,4.29956,1.2967,2186.165,0,,
1560,1,SBT2050,2,3,,7,4247.9,4.30128,1.2817,2195.01,0,,
1560,1,SBT2050,2,3,,7,4272.6,4.30311,1.2707,2203.77,0,,
1560,1,SBT2050,2,3,,7,4297.3,4.30475,1.2574,2212.443,0,,
1560,1,SBT2050,2,3,,7,4322.1,4.30561,1.2472,2221.078,0,,
1560,1,SBT2050,2,3,,7,4346.8,4.30702,1.2381,2229.612,0,,
1560,1,SBT2050,2,3,,7,4371.5,4.30836,1.2337,2238.088,0,,
1560,1,SBT2050,2,3,,7,4396.2,4.309,1.2262,2246.513,0,,
1560,1,SBT2050,2,3,,7,4421,4.30969,1.2185,2254.931,0,,
1560,1,SBT2050,2,3,,7,4445.7,4.31079,1.2173,2263.281,0,,
1560,1,SBT2050,2,3,,7,4470.4,4.31089,1.2108,2271.608,0,,
1560,1,SBT2050,2,3,,7,4495.1,4.31176,1.2089,2279.918,0,,
1560,1,SBT2050,2,3,,7,4519.9,4.31248,1.2087,2288.256,0,,
1560,1,SBT2050,2,3,,7,4544.6,4.31291,1.2089,2296.559,0,,
1560,1,SBT2050,2,3,,7,4569.3,4.31309,1.2102,2304.875,0,,
1560,1,SBT2050,2,3,,7,4594,4.31427,1.2197,2313.22,0,,
1560,1,SBT2050,2,3,,7,4618.8,4.315466,1.2288,2321.637,0,,
1560,1,SBT2050,2,3,,7,4643.5,4.31791,1.2511,2330.132,0,,
1560,1,SBT2050,2,3,,7,4668.2,4.32469,1.3126,2338.882,0,,
1560,1,SBT2050,2,3,,7,4692.9,4.33659,1.402,2348.202,0,,
1560,1,SBT2050,2,3,,7,4717.7,4.351284,1.513,2358.243,0,,
1560,1,SBT2050,2,3,,7,4742.4,4.3694,1.646,2369.104,0,,
1560,1,SBT2050,2,3,,7,4767.1,4.3897,1.8,2380.914,0,,
1560,1,SBT2050,2,3,,7,4777.941,4.40002,1.8755,2386.444,0,,