File: ORRG/Test1550.csv
Request Year:,2018,,,,,,,,,,,,
Test:,1550,,,,,,,,,,,,
Test Description:,,,,,,,,,,,,,
TestRegime Name:,Dchg_1C,,,,,,,,,,,,
TestRegime Suffix:,SHP_LC,,,,,,,,,,,,
TestRegime CellSize:,18650,,,,,,,,,,,,
TestRegime Version:,1,,,,,,,,,,,,
Number Of Cells:,1,,,,,,,,,,,,
LotID:,,,,,,,,,,,,,
Lot Description:,,,,,,,,,,,,,
Date Made:,1/21/2003 12:00 AM,,,,,,,,,,,,
Origin:,Other,,,,,,,,,,,,
Requestor:,Admin,,,,,,,,,,,,
Product ID:,Default product,,,,,,,,,,,,
Storage Temp:,R.T./AMB,,,,,,,,,,,,
Storage Delay:,0 days,,,,,,,,,,,,
Test Temp:,R.T./AMB,,,,,,,,,,,,
Start Time:,4/25/2018 8:19 AM,,,,,,,,,,,,
End Time:,4/25/2018 9:11 AM,,,,,,,,,,,,
Operator Instructions:,,,,,,,,,,,,,
Test,Cell,Rack,Shelf,Position,Cell ID,Step,Total Time (Seconds),Voltage (V),Current (A),Charge Capacity (mAh),Discharge Capacity (mAh),TC1 (Â°C),
1550,1,SBT2050,2,3,,0,1,4.10062,0,0,0,24.7,
1550,1,SBT2050,2,3,,0,19,4.10069,0,0,0,24.7,
1550,1,SBT2050,2,3,,0,37,4.100462,0,0,0,24.7,
1550,1,SBT2050,2,3,,0,55,4.10042,0,0,0,24.7,
1550,1,SBT2050,2,3,,1,73,3.81517,-2.6998,0,9.749,24.8,
1550,1,SBT2050,2,3,,1,91,3.78516,-2.6997,0,23.248,25.1,
1550,1,SBT2050,2,3,,1,109,3.76784,-2.6999,0,36.748,25.3,
1550,1,SBT2050,2,3,,1,127,3.75642,-2.7002,0,50.248,25.6,
1550,1,SBT2050,2,3,,1,145,3.74812,-2.7003,0,63.747,25.9,
1550,1,SBT2050,2,3,,1,163,3.74216,-2.6999,0,77.247,26.2,
1550,1,SBT2050,2,3,,1,181,3.73698,-2.7003,0,90.747,26.4,
1550,1,SBT2050,2,3,,1,199,3.73267,-2.7001,0,104.247,26.7,
1550,1,SBT2050,2,3,,1,217,3.7288,-2.6999,0,117.747,26.9,
1550,1,SBT2050,2,3,,1,235,3.72492,-2.6999,0,131.246,27.1,
1550,1,SBT2050,2,3,,1,253,3.72218,-2.6996,0,144.746,27.3,
1550,1,SBT2050,2,3,,1,271,3.718682,-2.7001,0,158.246,27.5,
1550,1,SBT2050,2,3,,1,289,3.715606,-2.6995,0,171.746,27.6,
1550,1,SBT2050,2,3,,1,307,3.71222,-2.6999,0,185.245,27.7,
1550,1,SBT2050,2,3,,1,325,3.70914,-2.6996,0,198.745,27.9,
1550,1,SBT2050,2,3,,1,343,3.7061,-2.6998,0,212.245,28,
1550,1,SBT2050,2,3,,1,361,3.70259,-2.7001,0,225.744,28.1,
1550,1,SBT2050,2,3,,1,379,3.698978,-2.6997,0,239.244,28.2,
1550,1,SBT2050,2,3,,1,397,3.69576,-2.6997,0,252.744,28.2,
1550,1,SBT2050,2,3,,1,415,3.69235,-2.7,0,266.244,28.3,
1550,1,SBT2050,2,3,,1,433,3.68861,-2.7002,0,279.743,28.4,
1550,1,SBT2050,2,3,,1,451,3.68495,-2.6997,0,293.243,28.5,
1550,1,SBT2050,2,3,,1,469,3.681138,-2.6996,0,306.743,28.5,
1550,1,SBT2050,2,3,,1,487,3.67739,-2.6998,0,320.243,28.6,
1550,1,SBT2050,2,3,,1,505,3.67366,-2.6999,0,333.742,28.6,
1550,1,SBT2050,2,3,,1,523,3.6695,-2.6998,0,347.242,28.7,
1550,1,SBT2050,2,3,,1,541,3.66584,-2.7001,0,360.742,28.7,
1550,1,SBT2050,2,3,,1,559,3.662,-2.7,0,374.242,28.7,
1550,1,SBT2050,2,3,,1,577,3.657936,-2.6999,0,387.741,28.8,
1550,1,SBT2050,2,3,,1,595,3.6536,-2.7003,0,401.241,28.8,
1550,1,SBT2050,2,3,,1,613,3.64991,-2.7002,0,414.741,28.8,
1550,1,SBT2050,2,3,,1,631,3.645664,-2.6995,0,428.241,28.9,
1550,1,SBT2050,2,3,,1,649,3.64147,-2.6999,0,441.74,28.9,
1550,1,SBT2050,2,3,,1,667,3.637238,-2.6997,0,455.24,28.9,
1550,1,SBT2050,2,3,,1,685,3.633142,-2.6997,0,468.74,28.9,
1550,1,SBT2050,2,3,,1,703,3.62841,-2.6997,0,482.239,28.9,
1550,1,SBT2050,2,3,,1,721,3.62439,-2.6997,0,495.739,28.9,
1550,1,SBT2050,2,3,,1,739,3.62015,-2.6998,0,509.239,29,
1550,1,SBT2050,2,3,,1,757,3.61563,-2.6996,0,522.739,28.9,
1550,1,SBT2050,2,3,,1,775,3.61116,-2.7,0,536.238,28.9,
1550,1,SBT2050,2,3,,1,793,3.60645,-2.6996,0,549.738,29,
1550,1,SBT2050,2,3,,1,811,3.60224,-2.7,0,563.238,29,
1550,1,SBT2050,2,3,,1,829,3.597328,-2.6999,0,576.738,29,
1550,1,SBT2050,2,3,,1,847,3.593,-2.7001,0,590.237,29,
1550,1,SBT2050,2,3,,1,865,3.58882,-2.6999,0,603.737,29,
1550,1,SBT2050,2,3,,1,883,3.584204,-2.6999,0,617.237,29,
1550,1,SBT2050,2,3,,1,901,3.57983,-2.7,0,630.737,29,
1550,1,SBT2050,2,3,,1,919,3.57496,-2.7,0,644.236,29,
1550,1,SBT2050,2,3,,1,937,3.57012,-2.7,0,657.736,29,
1550,1,SBT2050,2,3,,1,955,3.56573,-2.6997,0,671.236,29.1,
1550,1,SBT2050,2,3,,1,973,3.560966,-2.6997,0,684.735,29,
1550,1,SBT2050,2,3,,1,991,3.55609,-2.6998,0,698.235,29.1,
1550,1,SBT2050,2,3,,1,1009,3.5516,-2.6999,0,711.735,29.1,
1550,1,SBT2050,2,3,,1,1027,3.54694,-2.6999,0,725.235,29.1,
1550,1,SBT2050,2,3,,1,1045,3.54183,-2.6999,0,738.735,29.1,
1550,1,SBT2050,2,3,,1,1063,3.537268,-2.7001,0,752.234,29.1,
1550,1,SBT2050,2,3,,1,1081,3.53269,-2.7,0,765.734,29.1,
1550,1,SBT2050,2,3,,1,1099,3.52789,-2.6997,0,779.234,29.1,
1550,1,SBT2050,2,3,,1,1117,3.523254,-2.6999,0,792.733,29.1,
1550,1,SBT2050,2,3,,1,1135,3.51849,-2.6999,0,806.233,29.1,
1550,1,SBT2050,2,3,,1,1153,3.513854,-2.6998,0,819.733,29.1,
1550,1,SBT2050,2,3,,1,1171,3.50889,-2.6999,0,833.232,29.1,
1550,1,SBT2050,2,3,,1,1189,3.503852,-2.7002,0,846.732,29.2,
1550,1,SBT2050,2,3,,1,1207,3.49925,-2.6999,0,860.232,29.2,
1550,1,SBT2050,2,3,,1,1225,3.49432,-2.6998,0,873.731,29.1,
1550,1,SBT2050,2,3,,1,1243,3.48974,-2.7001,0,887.231,29.1,
1550,1,SBT2050,2,3,,1,1261,3.48456,-2.7001,0,900.731,29.1,
1550,1,SBT2050,2,3,,1,1279,3.47975,-2.7,0,914.231,29.2,
1550,1,SBT2050,2,3,,1,1297,3.47504,-2.7001,0,927.731,29.1,
1550,1,SBT2050,2,3,,1,1315,3.47021,-2.6995,0,941.23,29.1,
1550,1,SBT2050,2,3,,1,1333,3.465436,-2.6995,0,954.73,29.2,
1550,1,SBT2050,2,3,,1,1351,3.46035,-2.6998,0,968.23,29.2,
1550,1,SBT2050,2,3,,1,1369,3.45559,-2.7001,0,981.729,29.2,
1550,1,SBT2050,2,3,,1,1387,3.450802,-2.6999,0,995.229,29.2,
1550,1,SBT2050,2,3,,1,1405,3.446086,-2.7001,0,1008.729,29.2,
1550,1,SBT2050,2,3,,1,1423,3.441156,-2.6999,0,1022.228,29.2,
1550,1,SBT2050,2,3,,1,1441,3.4366,-2.6996,0,1035.728,29.2,
1550,1,SBT2050,2,3,,1,1459,3.43183,-2.7002,0,1049.228,29.2,
1550,1,SBT2050,2,3,,1,1477,3.427,-2.6998,0,1062.728,29.2,
1550,1,SBT2050,2,3,,1,1495,3.42227,-2.7001,0,1076.227,29.2,
1550,1,SBT2050,2,3,,1,1513,3.41743,-2.7001,0,1089.727,29.2,
1550,1,SBT2050,2,3,,1,1531,3.4127,-2.7002,0,1103.227,29.2,
1550,1,SBT2050,2,3,,1,1549,3.4078,-2.7,0,1116.727,29.2,
1550,1,SBT2050,2,3,,1,1567,3.40329,-2.6999,0,1130.226,29.2,
1550,1,SBT2050,2,3,,1,1585,3.3983,-2.7002,0,1143.726,29.2,
1550,1,SBT2050,2,3,,1,1603,3.39321,-2.6999,0,1157.226,29.3,
1550,1,SBT2050,2,3,,1,1621,3.388174,-2.7002,0,1170.726,29.3,
1550,1,SBT2050,2,3,,1,1639,3.38374,-2.7,0,1184.225,29.3,
1550,1,SBT2050,2,3,,1,1657,3.37873,-2.7002,0,1197.725,29.3,
1550,1,SBT2050,2,3,,1,1675,3.37392,-2.6997,0,1211.225,29.3,
1550,1,SBT2050,2,3,,1,1693,3.3691,-2.7002,0,1224.724,29.3,
1550,1,SBT2050,2,3,,1,1711,3.36419,-2.7003,0,1238.224,29.3,
1550,1,SBT2050,2,3,,1,1729,3.35964,-2.6997,0,1251.724,29.3,
1550,1,SBT2050,2,3,,1,1747,3.35462,-2.7,0,1265.224,29.3,
1550,1,SBT2050,2,3,,1,1765,3.34954,-2.7001,0,1278.723,29.3,
1550,1,SBT2050,2,3,,1,1783,3.34454,-2.7001,0,1292.223,29.3,
1550,1,SBT2050,2,3,,1,1801,3.33957,-2.7001,0,1305.723,29.4,
1550,1,SBT2050,2,3,,1,1819,3.33465,-2.6998,0,1319.222,29.4,
1550,1,SBT2050,2,3,,1,1837,3.32964,-2.6998,0,1332.722,29.4,
1550,1,SBT2050,2,3,,1,1855,3.32468,-2.6999,0,1346.222,29.4,
1550,1,SBT2050,2,3,,1,1873,3.31965,-2.6998,0,1359.722,29.4,
1550,1,SBT2050,2,3,,1,1891,3.31444,-2.6999,0,1373.221,29.4,
1550,1,SBT2050,2,3,,1,1909,3.30939,-2.6997,0,1386.721,29.5,
1550,1,SBT2050,2,3,,1,1927,3.30417,-2.6997,0,1400.221,29.5,
1550,1,SBT2050,2,3,,1,1945,3.29888,-2.6997,0,1413.72,29.5,
1550,1,SBT2050,2,3,,1,1963,3.29335,-2.6999,0,1427.22,29.5,
1550,1,SBT2050,2,3,,1,1981,3.28822,-2.7002,0,1440.72,29.6,
1550,1,SBT2050,2,3,,1,1999,3.28294,-2.7003,0,1454.219,29.6,
1550,1,SBT2050,2,3,,1,2017,3.27752,-2.7,0,1467.719,29.6,
1550,1,SBT2050,2,3,,1,2035,3.27214,-2.7,0,1481.219,29.6,
1550,1,SBT2050,2,3,,1,2053,3.26652,-2.7,0,1494.719,29.7,
1550,1,SBT2050,2,3,,1,2071,3.26079,-2.6999,0,1508.218,29.7,
1550,1,SBT2050,2,3,,1,2089,3.25498,-2.6999,0,1521.718,29.7,
1550,1,SBT2050,2,3,,1,2107,3.24923,-2.7003,0,1535.218,29.7,
1550,1,SBT2050,2,3,,1,2125,3.24351,-2.6999,0,1548.717,29.7,
1550,1,SBT2050,2,3,,1,2143,3.23735,-2.6999,0,1562.217,29.8,
1550,1,SBT2050,2,3,,1,2161,3.23126,-2.6999,0,1575.717,29.8,
1550,1,SBT2050,2,3,,1,2179,3.225251,-2.7004,0,1589.217,29.8,
1550,1,SBT2050,2,3,,1,2197,3.218941,-2.7001,0,1602.716,29.9,
1550,1,SBT2050,2,3,,1,2215,3.21265,-2.6996,0,1616.216,29.9,
1550,1,SBT2050,2,3,,1,2233,3.20615,-2.6998,0,1629.716,30,
1550,1,SBT2050,2,3,,1,2251,3.1999,-2.6996,0,1643.215,30,
1550,1,SBT2050,2,3,,1,2269,3.19332,-2.6996,0,1656.715,30,
1550,1,SBT2050,2,3,,1,2287,3.186338,-2.7001,0,1670.215,30.1,
1550,1,SBT2050,2,3,,1,2305,3.17941,-2.6998,0,1683.714,30.1,
1550,1,SBT2050,2,3,,1,2323,3.17231,-2.7001,0,1697.214,30.2,
1550,1,SBT2050,2,3,,1,2341,3.165091,-2.6998,0,1710.714,30.3,
1550,1,SBT2050,2,3,,1,2359,3.157697,-2.7,0,1724.214,30.3,
1550,1,SBT2050,2,3,,1,2377,3.14997,-2.6999,0,1737.713,30.4,
1550,1,SBT2050,2,3,,1,2395,3.14216,-2.6996,0,1751.213,30.4,
1550,1,SBT2050,2,3,,1,2413,3.134,-2.6999,0,1764.713,30.5,
1550,1,SBT2050,2,3,,1,2431,3.12586,-2.6998,0,1778.212,30.5,
1550,1,SBT2050,2,3,,1,2449,3.11747,-2.7,0,1791.712,30.5,
1550,1,SBT2050,2,3,,1,2467,3.10897,-2.6999,0,1805.212,30.6,
1550,1,SBT2050,2,3,,1,2485,3.09995,-2.7,0,1818.712,30.6,
1550,1,SBT2050,2,3,,1,2503,3.09069,-2.7,0,1832.211,30.7,
1550,1,SBT2050,2,3,,1,2521,3.08126,-2.7001,0,1845.711,30.8,
1550,1,SBT2050,2,3,,1,2539,3.07179,-2.7,0,1859.211,30.8,
1550,1,SBT2050,2,3,,1,2557,3.06174,-2.6999,0,1872.711,30.9,
1550,1,SBT2050,2,3,,1,2575,3.051756,-2.7,0,1886.21,31,
1550,1,SBT2050,2,3,,1,2593,3.04123,-2.6996,0,1899.71,31,
1550,1,SBT2050,2,3,,1,2611,3.03033,-2.6999,0,1913.21,31.1,
1550,1,SBT2050,2,3,,1,2629,3.01891,-2.7004,0,1926.71,31.2,
1550,1,SBT2050,2,3,,1,2647,3.0072,-2.6996,0,1940.209,31.3,
1550,1,SBT2050,2,3,,1,2665,2.99505,-2.6997,0,1953.709,31.4,
1550,1,SBT2050,2,3,,1,2683,2.9823,-2.7,0,1967.209,31.5,
1550,1,SBT2050,2,3,,1,2701,2.96894,-2.7002,0,1980.709,31.6,
1550,1,SBT2050,2,3,,1,2719,2.95493,-2.6997,0,1994.208,31.6,
1550,1,SBT2050,2,3,,1,2737,2.94064,-2.6997,0,2007.708,31.7,
1550,1,SBT2050,2,3,,1,2755,2.925,-2.6997,0,2021.208,31.9,
1550,1,SBT2050,2,3,,1,2773,2.908723,-2.7,0,2034.707,32,
1550,1,SBT2050,2,3,,1,2791,2.89152,-2.7002,0,2048.207,32.1,
1550,1,SBT2050,2,3,,1,2809,2.87299,-2.6999,0,2061.707,32.2,
1550,1,SBT2050,2,3,,1,2827,2.853224,-2.6997,0,2075.207,32.3,
1550,1,SBT2050,2,3,,1,2845,2.8326,-2.6998,0,2088.706,32.5,
1550,1,SBT2050,2,3,,1,2863,2.81028,-2.7001,0,2102.206,32.6,
1550,1,SBT2050,2,3,,1,2881,2.78668,-2.7003,0,2115.706,32.7,
1550,1,SBT2050,2,3,,1,2899,2.7613,-2.6997,0,2129.206,32.9,
1550,1,SBT2050,2,3,,1,2917,2.73387,-2.6997,0,2142.705,33.1,
1550,1,SBT2050,2,3,,1,2935,2.70397,-2.6999,0,2156.205,33.3,
1550,1,SBT2050,2,3,,1,2953,2.67078,-2.6999,0,2169.705,33.5,
1550,1,SBT2050,2,3,,1,2971,2.63259,-2.7,0,2183.204,33.7,
1550,1,SBT2050,2,3,,1,2989,2.588604,-2.7,0,2196.704,33.9,
1550,1,SBT2050,2,3,,1,3007,2.53645,-2.7,0,2210.204,34.2,
1550,1,SBT2050,2,3,,2,3024,3.06166,0,0,2218.352,34.4,
1550,1,SBT2050,2,3,,2,3042,3.207663,0,0,2218.352,34.1,
1550,1,SBT2050,2,3,,2,3060,3.253347,0,0,2218.352,33.6,
1550,1,SBT2050,2,3,,2,3077.864,3.27967,-9.9E-05,0,2218.352,,