File: ORRG/Test1514.csv
Request Year:,2018,,,,,,,,,,,,
Test:,1514,,,,,,,,,,,,
Test Description:,,,,,,,,,,,,,
TestRegime Name:,Aging_Performance,,,,,,,,,,,,
TestRegime Suffix:,SHP_LC,,,,,,,,,,,,
TestRegime CellSize:,18650,,,,,,,,,,,,
TestRegime Version:,1,,,,,,,,,,,,
Number Of Cells:,1,,,,,,,,,,,,
LotID:,,,,,,,,,,,,,
Lot Description:,,,,,,,,,,,,,
Date Made:,1/21/2003 12:00 AM,,,,,,,,,,,,
Origin:,Other,,,,,,,,,,,,
Requestor:,Admin,,,,,,,,,,,,
Product ID:,Default product,,,,,,,,,,,,
Storage Temp:,R.T./AMB,,,,,,,,,,,,
Storage Delay:,0 days,,,,,,,,,,,,
Test Temp:,R.T./AMB,,,,,,,,,,,,
Start Time:,4/19/2018 3:41 PM,,,,,,,,,,,,
End Time:,4/20/2018 12:49 AM,,,,,,,,,,,,
Operator Instructions:,,,,,,,,,,,,,
Test,Cell,Rack,Shelf,Position,Cell ID,Step,Total Time (Seconds),Voltage (V),Current (A),Charge Capacity (mAh),Discharge Capacity (mAh),TC1 (Â°C),
1514,1,SBT2050,2,3,,0,1,3.34556,0,0,0,24.7,
1514,1,SBT2050,2,3,,0,216,3.34579,0,0,0,25,
1514,1,SBT2050,2,3,,1,431,2.499819,-1.2126,0,64.865,28.2,
1514,1,SBT2050,2,3,,1,646,2.49987,-0.671,0,118.66,28.9,
1514,1,SBT2050,2,3,,1,861,2.50003,-0.42323,0,150.575,28.1,
1514,1,SBT2050,2,3,,1,1076,2.49984,-0.29405,0,171.603,27.4,
1514,1,SBT2050,2,3,,1,1291,2.49988,-0.2215,0,186.803,26.8,
1514,1,SBT2050,2,3,,1,1506,2.49984,-0.17685,0,198.613,26.4,
1514,1,SBT2050,2,3,,1,1721,2.50021,-0.14711,0,208.239,26.1,
1514,1,SBT2050,2,3,,1,1936,2.49993,-0.12457,0,216.314,25.9,
1514,1,SBT2050,2,3,,1,2151,2.50006,-0.10691,0,223.212,25.7,
1514,1,SBT2050,2,3,,1,2366,2.50009,-0.09237,0,229.146,25.6,
1514,1,SBT2050,2,3,,1,2581,2.4997,-0.07987,0,234.281,25.5,
1514,1,SBT2050,2,3,,1,2796,2.49987,-0.06968,0,238.746,25.5,
1514,1,SBT2050,2,3,,1,3011,2.49984,-0.06068,0,242.636,25.4,
1514,1,SBT2050,2,3,,1,3226,2.499807,-0.05246,0,246.008,25.4,
1514,1,SBT2050,2,3,,1,3441,2.50001,-0.045266,0,248.919,25.3,
1514,1,SBT2050,2,3,,1,3656,2.499962,-0.039011,0,251.43,25.3,
1514,1,SBT2050,2,3,,1,3871,2.49989,-0.033489,0,253.589,25.4,
1514,1,SBT2050,2,3,,1,4086,2.50007,-0.028143,0,255.421,25.4,
1514,1,SBT2050,2,3,,1,4301,2.499962,-0.023397,0,256.954,25.5,
1514,1,SBT2050,2,3,,1,4516,2.499807,-0.019764,0,258.246,25.5,
1514,1,SBT2050,2,3,,1,4731,2.49991,-0.016569,0,259.335,25.5,
1514,1,SBT2050,2,3,,1,4946,2.50008,-0.013978,0,260.247,25.5,
1514,1,SBT2050,2,3,,1,5161,2.50003,-0.01178,0,261.015,25.5,
1514,1,SBT2050,2,3,,1,5376,2.49991,-0.010207,0,261.671,25.5,
1514,1,SBT2050,2,3,,2,5590,3.63078,2.936,171.84,261.681,27.6,
1514,1,SBT2050,2,3,,2,5805,3.684548,2.9364,347.181,261.681,29.5,
1514,1,SBT2050,2,3,,2,6020,3.71908,2.9357,522.522,261.681,30.2,
1514,1,SBT2050,2,3,,2,6235,3.75194,2.9361,697.863,261.681,30.3,
1514,1,SBT2050,2,3,,2,6450,3.78877,2.936,873.204,261.681,30.3,
1514,1,SBT2050,2,3,,2,6665,3.8295,2.9357,1048.544,261.681,30.3,
1514,1,SBT2050,2,3,,2,6880,3.87794,2.9359,1223.886,261.681,30.5,
1514,1,SBT2050,2,3,,2,7095,3.93602,2.9361,1399.228,261.681,30.7,
1514,1,SBT2050,2,3,,2,7310,3.998452,2.9358,1574.57,261.681,30.9,
1514,1,SBT2050,2,3,,2,7525,4.06367,2.9357,1749.912,261.681,31.1,
1514,1,SBT2050,2,3,,2,7740,4.13021,2.9361,1925.254,261.681,31.3,
1514,1,SBT2050,2,3,,2,7955,4.15021,2.3211,2086.639,261.681,31.1,
1514,1,SBT2050,2,3,,2,8170,4.14993,1.6737,2204.85,261.681,30,
1514,1,SBT2050,2,3,,2,8385,4.15008,1.2254,2290.488,261.681,28.9,
1514,1,SBT2050,2,3,,2,8600,4.14996,0.9251,2354.082,261.681,28,
1514,1,SBT2050,2,3,,2,8815,4.15003,0.7242,2402.992,261.681,27.3,
1514,1,SBT2050,2,3,,2,9030,4.1502,0.5858,2441.897,261.681,26.8,
1514,1,SBT2050,2,3,,2,9245,4.14992,0.4872,2473.782,261.681,26.5,
1514,1,SBT2050,2,3,,2,9460,4.150154,0.41427,2500.559,261.681,26.4,
1514,1,SBT2050,2,3,,2,9675,4.15008,0.35951,2523.612,261.681,26.2,
1514,1,SBT2050,2,3,,2,9890,4.14989,0.31621,2543.738,261.681,26.1,
1514,1,SBT2050,2,3,,2,10105,4.14996,0.27996,2561.519,261.681,26,
1514,1,SBT2050,2,3,,2,10320,4.14995,0.25003,2577.306,261.681,26,
1514,1,SBT2050,2,3,,2,10535,4.15008,0.22336,2591.421,261.681,26,
1514,1,SBT2050,2,3,,2,10750,4.15006,0.20112,2604.061,261.681,25.9,
1514,1,SBT2050,2,3,,2,10965,4.14997,0.18134,2615.461,261.681,25.9,
1514,1,SBT2050,2,3,,2,11180,4.14996,0.16505,2625.791,261.681,25.9,
1514,1,SBT2050,2,3,,2,11395,4.15032,0.15011,2635.166,261.681,25.9,
1514,1,SBT2050,2,3,,2,11610,4.15002,0.13706,2643.719,261.681,25.9,
1514,1,SBT2050,2,3,,2,11825,4.15009,0.11797,2651.338,261.681,25.3,
1514,1,SBT2050,2,3,,2,12040,4.1499,0.10509,2657.972,261.681,24.5,
1514,1,SBT2050,2,3,,2,12255,4.15009,0.09697,2664.016,261.681,24.5,
1514,1,SBT2050,2,3,,2,12470,4.15017,0.08922,2669.573,261.681,24.7,
1514,1,SBT2050,2,3,,2,12685,4.15025,0.0828,2674.704,261.681,24.8,
1514,1,SBT2050,2,3,,2,12900,4.14986,0.07666,2679.457,261.681,24.8,
1514,1,SBT2050,2,3,,2,13115,4.15003,0.07106,2683.883,261.681,24.9,
1514,1,SBT2050,2,3,,2,13330,4.15007,0.06619,2687.994,261.681,24.9,
1514,1,SBT2050,2,3,,2,13545,4.14995,0.06213,2691.828,261.681,24.9,
1514,1,SBT2050,2,3,,2,13760,4.15006,0.0577,2695.398,261.681,25,
1514,1,SBT2050,2,3,,2,13975,4.14997,0.0545,2698.74,261.681,25,
1514,1,SBT2050,2,3,,2,14190,4.14994,0.05028,2701.863,261.681,25,
1514,1,SBT2050,2,3,,2,14405,4.14984,0.0475,2704.782,261.681,25,
1514,1,SBT2050,2,3,,2,14620,4.15,0.044622,2707.528,261.681,25,
1514,1,SBT2050,2,3,,2,14835,4.15018,0.041785,2710.107,261.681,25,
1514,1,SBT2050,2,3,,2,15050,4.14984,0.039562,2712.534,261.681,25,
1514,1,SBT2050,2,3,,2,15265,4.14999,0.037863,2714.836,261.681,25,
1514,1,SBT2050,2,3,,2,15480,4.15018,0.035931,2717.012,261.681,25,
1514,1,SBT2050,2,3,,2,15695,4.14992,0.033958,2719.084,261.681,25,
1514,1,SBT2050,2,3,,2,15910,4.15033,0.031763,2721.041,261.681,25,
1514,1,SBT2050,2,3,,2,16125,4.15006,0.030445,2722.896,261.681,25,
1514,1,SBT2050,2,3,,2,16340,4.15026,0.028573,2724.656,261.681,25,
1514,1,SBT2050,2,3,,2,16555,4.14997,0.027177,2726.318,261.681,25,
1514,1,SBT2050,2,3,,2,16770,4.14993,0.025793,2727.905,261.681,25,
1514,1,SBT2050,2,3,,2,16985,4.149808,0.02489,2729.398,261.681,25,
1514,1,SBT2050,2,3,,2,17200,4.14999,0.023567,2730.838,261.681,24.9,
1514,1,SBT2050,2,3,,2,17415,4.14989,0.021958,2732.195,261.681,24.9,
1514,1,SBT2050,2,3,,2,17630,4.15026,0.021077,2733.483,261.681,24.9,
1514,1,SBT2050,2,3,,2,17845,4.15009,0.01976,2734.714,261.681,24.9,
1514,1,SBT2050,2,3,,2,18060,4.14971,0.019089,2735.882,261.681,24.9,
1514,1,SBT2050,2,3,,2,18275,4.14999,0.017908,2736.995,261.681,25,
1514,1,SBT2050,2,3,,2,18490,4.15008,0.017272,2738.056,261.681,24.9,
1514,1,SBT2050,2,3,,2,18705,4.150118,0.016334,2739.078,261.681,25,
1514,1,SBT2050,2,3,,2,18920,4.149808,0.015999,2740.063,261.681,25,
1514,1,SBT2050,2,3,,2,19135,4.15008,0.015382,2741,261.681,24.9,
1514,1,SBT2050,2,3,,2,19350,4.1499,0.014727,2741.909,261.681,24.9,
1514,1,SBT2050,2,3,,2,19565,4.14988,0.014107,2742.771,261.681,25,
1514,1,SBT2050,2,3,,2,19780,4.149832,0.013594,2743.596,261.681,25,
1514,1,SBT2050,2,3,,2,19995,4.15,0.013227,2744.397,261.681,25.1,
1514,1,SBT2050,2,3,,2,20210,4.15006,0.013054,2745.187,261.681,25.3,
1514,1,SBT2050,2,3,,2,20425,4.14974,0.01199,2745.932,261.681,25.2,
1514,1,SBT2050,2,3,,2,20640,4.15001,0.011301,2746.636,261.681,25.2,
1514,1,SBT2050,2,3,,2,20855,4.15005,0.011304,2747.317,261.681,25.2,
1514,1,SBT2050,2,3,,2,21070,4.15006,0.01044,2747.974,261.681,24.3,
1514,1,SBT2050,2,3,,3,21284,4.146118,0,2748.022,261.681,24.2,
1514,1,SBT2050,2,3,,3,21942.486,4.14435,0,2748.022,261.681,24.5,
1514,1,SBT2050,2,3,,3,22157.486,4.14425,0,2748.022,261.681,24.9,
1514,1,SBT2050,2,3,,3,22372.486,4.1439,0,2748.022,261.681,25.1,
1514,1,SBT2050,2,3,,3,22587.486,4.143606,0,2748.022,261.681,25.1,
1514,1,SBT2050,2,3,,3,22802.486,4.14321,0,2748.022,261.681,24.9,
1514,1,SBT2050,2,3,,3,23017.486,4.14312,0,2748.022,261.681,24.9,
1514,1,SBT2050,2,3,,3,23232.486,4.14301,0,2748.022,261.681,24.9,
1514,1,SBT2050,2,3,,4,23446.486,3.78035,-2.9357,2748.022,356.438,26.5,
1514,1,SBT2050,2,3,,4,23661.486,3.75522,-2.9358,2748.022,531.781,29.4,
1514,1,SBT2050,2,3,,4,23876.486,3.71833,-2.9359,2748.022,707.123,30.1,
1514,1,SBT2050,2,3,,4,24091.486,3.66373,-2.936,2748.022,882.465,29.6,
1514,1,SBT2050,2,3,,4,24306.486,3.603994,-2.936,2748.022,1057.806,29.2,
1514,1,SBT2050,2,3,,4,24521.486,3.54262,-2.9359,2748.022,1233.148,29.1,
1514,1,SBT2050,2,3,,4,24736.486,3.48091,-2.936,2748.022,1408.49,29.1,
1514,1,SBT2050,2,3,,4,24951.486,3.42167,-2.9359,2748.022,1583.833,29.3,
1514,1,SBT2050,2,3,,4,25166.486,3.36483,-2.9358,2748.022,1759.175,29.4,
1514,1,SBT2050,2,3,,4,25381.486,3.30599,-2.9361,2748.022,1934.516,29.5,
1514,1,SBT2050,2,3,,4,25596.486,3.23826,-2.9362,2748.022,2109.857,29.9,
1514,1,SBT2050,2,3,,4,25811.486,3.14984,-2.9357,2748.022,2285.199,30.5,
1514,1,SBT2050,2,3,,4,26026.486,3.02041,-2.936,2748.022,2460.54,31.4,
1514,1,SBT2050,2,3,,4,26241.486,2.78609,-2.936,2748.022,2635.882,32.9,
1514,1,SBT2050,2,3,,4,26456.486,2.49981,-1.8412,2748.022,2793.503,35.5,
1514,1,SBT2050,2,3,,4,26671.486,2.49989,-0.8189,2748.022,2867.882,33.1,
1514,1,SBT2050,2,3,,4,26886.486,2.49989,-0.45067,2748.022,2903.931,30.2,
1514,1,SBT2050,2,3,,4,27101.486,2.49974,-0.30392,2748.022,2925.917,28.3,
1514,1,SBT2050,2,3,,4,27316.486,2.49982,-0.22707,2748.022,2941.596,27.2,
1514,1,SBT2050,2,3,,4,27531.486,2.49994,-0.17734,2748.022,2953.577,26.6,
1514,1,SBT2050,2,3,,4,27746.486,2.49989,-0.14298,2748.022,2963.084,26.1,
1514,1,SBT2050,2,3,,4,27961.486,2.5,-0.11864,2748.022,2970.861,25.8,
1514,1,SBT2050,2,3,,4,28176.486,2.49987,-0.0998,2748.022,2977.377,25.7,
1514,1,SBT2050,2,3,,4,28391.486,2.49999,-0.08459,2748.022,2982.877,25.6,
1514,1,SBT2050,2,3,,4,28606.486,2.49992,-0.07199,2748.022,2987.535,25.5,
1514,1,SBT2050,2,3,,4,28821.486,2.49999,-0.06158,2748.022,2991.511,25.4,
1514,1,SBT2050,2,3,,4,29036.486,2.49991,-0.05271,2748.022,2994.915,25.3,
1514,1,SBT2050,2,3,,4,29251.486,2.49986,-0.044713,2748.022,2997.825,25.3,
1514,1,SBT2050,2,3,,4,29466.486,2.499953,-0.037462,2748.022,3000.28,25.3,
1514,1,SBT2050,2,3,,4,29681.486,2.49993,-0.031426,2748.022,3002.331,25.3,
1514,1,SBT2050,2,3,,4,29896.486,2.50006,-0.026291,2748.022,3004.05,25.2,
1514,1,SBT2050,2,3,,4,30111.486,2.50001,-0.02176,2748.022,3005.481,25.1,
1514,1,SBT2050,2,3,,4,30326.486,2.49994,-0.018014,2748.022,3006.66,25.1,
1514,1,SBT2050,2,3,,4,30541.486,2.49985,-0.014593,2748.022,3007.631,25.1,
1514,1,SBT2050,2,3,,4,30756.486,2.50001,-0.012423,2748.022,3008.444,25.1,
1514,1,SBT2050,2,3,,4,30971.486,2.499953,-0.010556,2748.022,3009.134,25.1,
1514,1,SBT2050,2,3,,5,31185.486,2.57217,0,2748.022,3009.348,25.1,
1514,1,SBT2050,2,3,,5,31400.486,2.63769,0,2748.022,3009.348,25.1,
1514,1,SBT2050,2,3,,5,31615.486,2.68037,0,2748.022,3009.348,25.1,
1514,1,SBT2050,2,3,,5,31830.486,2.70951,0,2748.022,3009.348,25.2,
1514,1,SBT2050,2,3,,5,32045.486,2.73174,0,2748.022,3009.348,25.2,
1514,1,SBT2050,2,3,,5,32260.486,2.74849,0,2748.022,3009.348,25.1,
1514,1,SBT2050,2,3,,5,32475.486,2.76199,0,2748.022,3009.348,25.1,
1514,1,SBT2050,2,3,,5,32690.486,2.77291,0,2748.022,3009.348,25.1,
1514,1,SBT2050,2,3,,5,32845.657,2.77989,-0.0001,2748.022,3009.348,,