File: ORRG/Test1581.csv
Request Year:,2018,,,,,,,,,,,,
Test:,1581,,,,,,,,,,,,
Test Description:,,,,,,,,,,,,,
TestRegime Name:,Aging_test caseB_1,,,,,,,,,,,,
TestRegime Suffix:,SHP_LC,,,,,,,,,,,,
TestRegime CellSize:,18650,,,,,,,,,,,,
TestRegime Version:,3,,,,,,,,,,,,
Number Of Cells:,1,,,,,,,,,,,,
LotID:,,,,,,,,,,,,,
Lot Description:,,,,,,,,,,,,,
Date Made:,1/21/2003 12:00 AM,,,,,,,,,,,,
Origin:,Other,,,,,,,,,,,,
Requestor:,Admin,,,,,,,,,,,,
Product ID:,Default product,,,,,,,,,,,,
Storage Temp:,R.T./AMB,,,,,,,,,,,,
Storage Delay:,0 days,,,,,,,,,,,,
Test Temp:,R.T./AMB,,,,,,,,,,,,
Start Time:,4/28/2018 12:29 PM,,,,,,,,,,,,
End Time:,4/28/2018 1:44 PM,,,,,,,,,,,,
Operator Instructions:,,,,,,,,,,,,,
Test,Cell,Rack,Shelf,Position,Cell ID,Step,Total Time (Seconds),Voltage (V),Current (A),Charge Capacity (mAh),Discharge Capacity (mAh),Trs (Â°C),
1581,1,SBT2050,2,3,,0,0.1,3.31612,0,0,0,,
1581,1,SBT2050,2,3,,0,23.4,3.31633,0,0,0,,
1581,1,SBT2050,2,3,,0,46.7,3.31648,0,0,0,,
1581,1,SBT2050,2,3,,0,70,3.31647,0,0,0,,
1581,1,SBT2050,2,3,,0,93.3,3.316577,0,0,0,,
1581,1,SBT2050,2,3,,0,116.6,3.31664,0,0,0,,
1581,1,SBT2050,2,3,,0,139.9,3.31672,0,0,0,,
1581,1,SBT2050,2,3,,0,163.2,3.31669,0,0,0,,
1581,1,SBT2050,2,3,,0,186.5,3.31661,0,0,0,,
1581,1,SBT2050,2,3,,0,209.8,3.31666,0,0,0,,
1581,1,SBT2050,2,3,,0,233.1,3.31685,0,0,0,,
1581,1,SBT2050,2,3,,0,256.4,3.31686,0,0,0,,
1581,1,SBT2050,2,3,,0,279.7,3.31707,0,0,0,,
1581,1,SBT2050,2,3,,0,303,3.317133,0,0,0,,
1581,1,SBT2050,2,3,,0,326.3,3.31698,0,0,0,,
1581,1,SBT2050,2,3,,0,349.6,3.31686,0,0,0,,
1581,1,SBT2050,2,3,,0,372.9,3.31724,0,0,0,,
1581,1,SBT2050,2,3,,0,396.2,3.31719,0,0,0,,
1581,1,SBT2050,2,3,,0,419.5,3.317266,0,0,0,,
1581,1,SBT2050,2,3,,0,442.8,3.317396,0,0,0,,
1581,1,SBT2050,2,3,,0,466.1,3.31745,0,0,0,,
1581,1,SBT2050,2,3,,0,489.4,3.31734,0,0,0,,
1581,1,SBT2050,2,3,,0,512.7,3.31721,0,0,0,,
1581,1,SBT2050,2,3,,0,536,3.31763,0,0,0,,
1581,1,SBT2050,2,3,,0,559.3,3.31762,0,0,0,,
1581,1,SBT2050,2,3,,0,582.6,3.3176,0,0,0,,
1581,1,SBT2050,2,3,,0,605.9,3.31751,0,0,0,,
1581,1,SBT2050,2,3,,0,629.2,3.317484,0,0,0,,
1581,1,SBT2050,2,3,,0,652.5,3.31744,0,0,0,,
1581,1,SBT2050,2,3,,0,675.8,3.3178,0,0,0,,
1581,1,SBT2050,2,3,,0,699.1,3.31777,0,0,0,,
1581,1,SBT2050,2,3,,0,722.4,3.31769,0,0,0,,
1581,1,SBT2050,2,3,,0,745.7,3.31779,0,0,0,,
1581,1,SBT2050,2,3,,0,769,3.31773,0,0,0,,
1581,1,SBT2050,2,3,,0,792.3,3.31779,0,0,0,,
1581,1,SBT2050,2,3,,0,815.6,3.31776,0,0,0,,
1581,1,SBT2050,2,3,,0,838.9,3.31793,0,0,0,,
1581,1,SBT2050,2,3,,0,862.2,3.318181,0,0,0,,
1581,1,SBT2050,2,3,,0,885.5,3.31818,0,0,0,,
1581,1,SBT2050,2,3,,0,908.8,3.31829,0,0,0,,
1581,1,SBT2050,2,3,,0,932.1,3.31794,0,0,0,,
1581,1,SBT2050,2,3,,0,955.4,3.31816,0,0,0,,
1581,1,SBT2050,2,3,,0,978.7,3.31796,0,0,0,,
1581,1,SBT2050,2,3,,0,1002,3.318173,0,0,0,,
1581,1,SBT2050,2,3,,0,1025.3,3.31788,0,0,0,,
1581,1,SBT2050,2,3,,0,1048.6,3.31817,0,0,0,,
1581,1,SBT2050,2,3,,0,1071.9,3.31833,0,0,0,,
1581,1,SBT2050,2,3,,0,1095.2,3.31847,0,0,0,,
1581,1,SBT2050,2,3,,0,1118.5,3.31821,0,0,0,,
1581,1,SBT2050,2,3,,0,1141.8,3.31808,0,0,0,,
1581,1,SBT2050,2,3,,0,1165.1,3.31843,0,0,0,,
1581,1,SBT2050,2,3,,0,1188.4,3.31837,0,0,0,,
1581,1,SBT2050,2,3,,0,1211.7,3.31853,0,0,0,,
1581,1,SBT2050,2,3,,0,1235,3.31857,0,0,0,,
1581,1,SBT2050,2,3,,0,1258.3,3.31826,0,0,0,,
1581,1,SBT2050,2,3,,0,1281.6,3.31844,0,0,0,,
1581,1,SBT2050,2,3,,0,1304.9,3.31846,0,0,0,,
1581,1,SBT2050,2,3,,0,1328.2,3.318507,0,0,0,,
1581,1,SBT2050,2,3,,0,1351.5,3.31867,0,0,0,,
1581,1,SBT2050,2,3,,0,1374.8,3.31888,0,0,0,,
1581,1,SBT2050,2,3,,0,1398.1,3.318697,0,0,0,,
1581,1,SBT2050,2,3,,0,1421.4,3.3188,0,0,0,,
1581,1,SBT2050,2,3,,0,1444.7,3.31881,0,0,0,,
1581,1,SBT2050,2,3,,0,1468,3.3187,0,0,0,,
1581,1,SBT2050,2,3,,0,1491.3,3.31885,0,0,0,,
1581,1,SBT2050,2,3,,0,1514.6,3.31892,0,0,0,,
1581,1,SBT2050,2,3,,0,1537.9,3.31878,0,0,0,,
1581,1,SBT2050,2,3,,0,1561.2,3.31868,0,0,0,,
1581,1,SBT2050,2,3,,0,1584.5,3.31889,0,0,0,,
1581,1,SBT2050,2,3,,0,1607.8,3.31881,0,0,0,,
1581,1,SBT2050,2,3,,0,1631.1,3.31896,0,0,0,,
1581,1,SBT2050,2,3,,0,1654.4,3.3189,0,0,0,,
1581,1,SBT2050,2,3,,0,1677.7,3.31889,0,0,0,,
1581,1,SBT2050,2,3,,0,1701,3.318855,0,0,0,,
1581,1,SBT2050,2,3,,0,1724.3,3.31889,0,0,0,,
1581,1,SBT2050,2,3,,0,1747.6,3.3188,0,0,0,,
1581,1,SBT2050,2,3,,0,1770.9,3.31912,0,0,0,,
1581,1,SBT2050,2,3,,0,1794.2,3.31921,0,0,0,,
1581,1,SBT2050,2,3,,7,1817.3,3.91472,8.428,22.302,0,,
1581,1,SBT2050,2,3,,7,1840.3,4.01296,8.252,78.158,0,,
1581,1,SBT2050,2,3,,7,1863.4,4.021708,7.673,129.195,0,,
1581,1,SBT2050,2,3,,7,1886.4,4.00755,7.239,176.84,0,,
1581,1,SBT2050,2,3,,7,1909.5,3.98836,6.908,222.23,0,,
1581,1,SBT2050,2,3,,7,1932.5,3.97328,6.654,265.544,0,,
1581,1,SBT2050,2,3,,7,1955.5,3.96211,6.455,307.414,0,,
1581,1,SBT2050,2,3,,7,1978.6,3.95483,6.291,348.347,0,,
1581,1,SBT2050,2,3,,7,2001.6,3.95178,6.171,388.203,0,,
1581,1,SBT2050,2,3,,7,2024.7,3.94962,6.049,427.399,0,,
1581,1,SBT2050,2,3,,7,2047.7,3.94958,5.931,465.718,0,,
1581,1,SBT2050,2,3,,7,2070.8,3.951192,5.824,503.444,0,,
1581,1,SBT2050,2,3,,7,2093.8,3.95371,5.729,540.337,0,,
1581,1,SBT2050,2,3,,7,2116.9,3.95581,5.612,576.68,0,,
1581,1,SBT2050,2,3,,7,2139.9,3.95956,5.507,612.168,0,,
1581,1,SBT2050,2,3,,7,2162.9,3.963174,5.39,646.991,0,,
1581,1,SBT2050,2,3,,7,2186,3.96707,5.28,681.233,0,,
1581,1,SBT2050,2,3,,7,2209,3.97144,5.174,714.637,0,,
1581,1,SBT2050,2,3,,7,2232.1,3.97568,5.059,747.456,0,,
1581,1,SBT2050,2,3,,7,2255.1,3.97996,4.946,779.393,0,,
1581,1,SBT2050,2,3,,7,2278.2,3.98461,4.837,810.753,0,,
1581,1,SBT2050,2,3,,7,2301.2,3.98884,4.7173,841.27,0,,
1581,1,SBT2050,2,3,,7,2324.3,3.993052,4.6133,871.194,0,,
1581,1,SBT2050,2,3,,7,2347.3,3.99746,4.5005,900.279,0,,
1581,1,SBT2050,2,3,,7,2370.3,4.00145,4.3906,928.669,0,,
1581,1,SBT2050,2,3,,7,2393.4,4.0059,4.2864,956.499,0,,
1581,1,SBT2050,2,3,,7,2416.4,4.010354,4.1941,983.536,0,,
1581,1,SBT2050,2,3,,7,2439.5,4.01684,4.1296,1010.233,0,,
1581,1,SBT2050,2,3,,7,2462.5,4.023492,4.0652,1036.409,0,,
1581,1,SBT2050,2,3,,7,2485.6,4.02986,4.001,1062.292,0,,
1581,1,SBT2050,2,3,,7,2508.6,4.03631,3.9354,1087.64,0,,
1581,1,SBT2050,2,3,,7,2531.6,4.04263,3.8678,1112.561,0,,
1581,1,SBT2050,2,3,,7,2554.7,4.04903,3.8003,1137.172,0,,
1581,1,SBT2050,2,3,,7,2577.7,4.05489,3.7394,1161.276,0,,
1581,1,SBT2050,2,3,,7,2600.8,4.06127,3.6847,1185.103,0,,
1581,1,SBT2050,2,3,,7,2623.8,4.06677,3.6176,1208.424,0,,
1581,1,SBT2050,2,3,,7,2646.9,4.07249,3.5545,1231.423,0,,
1581,1,SBT2050,2,3,,7,2669.9,4.07821,3.4966,1253.971,0,,
1581,1,SBT2050,2,3,,7,2693,4.08343,3.4346,1276.22,0,,
1581,1,SBT2050,2,3,,7,2716,4.088436,3.3754,1297.959,0,,
1581,1,SBT2050,2,3,,7,2739,4.093036,3.3045,1319.313,0,,
1581,1,SBT2050,2,3,,7,2762.1,4.09815,3.2474,1340.333,0,,
1581,1,SBT2050,2,3,,7,2785.1,4.10245,3.1814,1360.881,0,,
1581,1,SBT2050,2,3,,7,2808.2,4.1073,3.1242,1381.13,0,,
1581,1,SBT2050,2,3,,7,2831.2,4.11153,3.0649,1400.895,0,,
1581,1,SBT2050,2,3,,7,2854.3,4.1151,2.9983,1420.315,0,,
1581,1,SBT2050,2,3,,7,2877.3,4.11932,2.9417,1439.284,0,,
1581,1,SBT2050,2,3,,7,2900.4,4.12404,2.8956,1458,0,,
1581,1,SBT2050,2,3,,7,2923.4,4.12967,2.8629,1476.391,0,,
1581,1,SBT2050,2,3,,7,2946.4,4.13409,2.8134,1494.483,0,,
1581,1,SBT2050,2,3,,7,2969.5,4.13844,2.7588,1512.37,0,,
1581,1,SBT2050,2,3,,7,2992.5,4.143664,2.7277,1529.885,0,,
1581,1,SBT2050,2,3,,7,3015.6,4.14775,2.677,1547.2,0,,
1581,1,SBT2050,2,3,,7,3038.6,4.1529,2.6482,1564.228,0,,
1581,1,SBT2050,2,3,,7,3061.7,4.15738,2.5984,1581.044,0,,
1581,1,SBT2050,2,3,,7,3084.7,4.16149,2.5522,1597.505,0,,
1581,1,SBT2050,2,3,,7,3107.7,4.16611,2.5168,1613.683,0,,
1581,1,SBT2050,2,3,,7,3130.8,4.17078,2.4776,1629.692,0,,
1581,1,SBT2050,2,3,,7,3153.8,4.17522,2.4384,1645.399,0,,
1581,1,SBT2050,2,3,,7,3176.9,4.1796,2.4068,1660.937,0,,
1581,1,SBT2050,2,3,,7,3199.9,4.18359,2.3634,1676.188,0,,
1581,1,SBT2050,2,3,,7,3223,4.18866,2.3355,1691.273,0,,
1581,1,SBT2050,2,3,,7,3246,4.19266,2.2978,1706.084,0,,
1581,1,SBT2050,2,3,,7,3269.1,4.19719,2.2655,1720.747,0,,
1581,1,SBT2050,2,3,,7,3292.1,4.20136,2.2316,1735.1,0,,
1581,1,SBT2050,2,3,,7,3315.1,4.20518,2.1965,1749.223,0,,
1581,1,SBT2050,2,3,,7,3338.2,4.20917,2.1583,1763.192,0,,
1581,1,SBT2050,2,3,,7,3361.2,4.212962,2.123,1776.874,0,,
1581,1,SBT2050,2,3,,7,3384.3,4.21729,2.0925,1790.415,0,,
1581,1,SBT2050,2,3,,7,3407.3,4.22102,2.0611,1803.691,0,,
1581,1,SBT2050,2,3,,7,3430.4,4.22493,2.0294,1816.811,0,,
1581,1,SBT2050,2,3,,7,3453.4,4.22896,1.999,1829.688,0,,
1581,1,SBT2050,2,3,,7,3476.5,4.23276,1.9684,1842.419,0,,
1581,1,SBT2050,2,3,,7,3499.5,4.236358,1.9382,1854.907,0,,
1581,1,SBT2050,2,3,,7,3522.5,4.24093,1.9199,1867.228,0,,
1581,1,SBT2050,2,3,,7,3545.6,4.24474,1.8841,1879.421,0,,
1581,1,SBT2050,2,3,,7,3568.6,4.24881,1.8582,1891.36,0,,
1581,1,SBT2050,2,3,,7,3591.7,4.25224,1.828,1903.183,0,,
1581,1,SBT2050,2,3,,7,3614.7,4.25581,1.7983,1914.759,0,,
1581,1,SBT2050,2,3,,7,3637.8,4.25985,1.7744,1926.234,0,,
1581,1,SBT2050,2,3,,7,3660.8,4.26345,1.7484,1937.476,0,,
1581,1,SBT2050,2,3,,7,3683.8,4.26725,1.7221,1948.556,0,,
1581,1,SBT2050,2,3,,7,3706.9,4.270672,1.6931,1959.512,0,,
1581,1,SBT2050,2,3,,7,3729.9,4.27363,1.6642,1970.253,0,,
1581,1,SBT2050,2,3,,7,3753,4.27762,1.6476,1980.877,0,,
1581,1,SBT2050,2,3,,7,3776,4.28107,1.6189,1991.308,0,,
1581,1,SBT2050,2,3,,7,3799.1,4.285102,1.6031,2001.643,0,,
1581,1,SBT2050,2,3,,7,3822.1,4.28818,1.5744,2011.787,0,,
1581,1,SBT2050,2,3,,7,3845.2,4.29157,1.5585,2021.837,0,,
1581,1,SBT2050,2,3,,7,3868.2,4.29463,1.5325,2031.715,0,,
1581,1,SBT2050,2,3,,7,3891.2,4.29756,1.5152,2041.444,0,,
1581,1,SBT2050,2,3,,7,3914.3,4.30093,1.4985,2051.111,0,,
1581,1,SBT2050,2,3,,7,3937.3,4.30374,1.4822,2060.631,0,,
1581,1,SBT2050,2,3,,7,3960.4,4.30664,1.4656,2070.087,0,,
1581,1,SBT2050,2,3,,7,3983.4,4.30909,1.449,2079.396,0,,
1581,1,SBT2050,2,3,,7,4006.5,4.31179,1.4383,2088.65,0,,
1581,1,SBT2050,2,3,,7,4029.5,4.3132,1.4206,2097.78,0,,
1581,1,SBT2050,2,3,,7,4052.6,4.31515,1.403,2106.842,0,,
1581,1,SBT2050,2,3,,7,4075.6,4.3164,1.3894,2115.771,0,,
1581,1,SBT2050,2,3,,7,4098.6,4.31772,1.3767,2124.603,0,,
1581,1,SBT2050,2,3,,7,4121.7,4.31869,1.3653,2133.398,0,,
1581,1,SBT2050,2,3,,7,4144.7,4.31909,1.3545,2142.082,0,,
1581,1,SBT2050,2,3,,7,4167.8,4.318994,1.344,2150.738,0,,
1581,1,SBT2050,2,3,,7,4190.8,4.31899,1.3352,2159.302,0,,
1581,1,SBT2050,2,3,,7,4213.9,4.31868,1.33,2167.858,0,,
1581,1,SBT2050,2,3,,7,4236.9,4.31834,1.3263,2176.351,0,,
1581,1,SBT2050,2,3,,7,4259.9,4.31729,1.3267,2184.824,0,,
1581,1,SBT2050,2,3,,7,4283,4.31645,1.3251,2193.333,0,,
1581,1,SBT2050,2,3,,7,4306,4.31496,1.3279,2201.806,0,,
1581,1,SBT2050,2,3,,7,4329.1,4.31447,1.3365,2210.344,0,,
1581,1,SBT2050,2,3,,7,4352.1,4.31342,1.344,2218.875,0,,
1581,1,SBT2050,2,3,,7,4375.2,4.31466,1.3689,2227.574,0,,
1581,1,SBT2050,2,3,,7,4398.2,4.31904,1.4246,2236.455,0,,
1581,1,SBT2050,2,3,,7,4421.3,4.33088,1.5481,2245.96,0,,
1581,1,SBT2050,2,3,,7,4444.3,4.34989,1.7235,2256.396,0,,
1581,1,SBT2050,2,3,,7,4467.3,4.37212,1.9251,2268.034,0,,
1581,1,SBT2050,2,3,,7,4490.4,4.397298,2.1571,2281.114,0,,
1581,1,SBT2050,2,3,,7,4492.266,4.40002,2.1794,2282.239,0,,