File: ORRG/Test1534.csv
Request Year:,2018,,,,,,,,,,,,
Test:,1534,,,,,,,,,,,,
Test Description:,,,,,,,,,,,,,
TestRegime Name:,Dchg_1C,,,,,,,,,,,,
TestRegime Suffix:,SHP_LC,,,,,,,,,,,,
TestRegime CellSize:,18650,,,,,,,,,,,,
TestRegime Version:,1,,,,,,,,,,,,
Number Of Cells:,1,,,,,,,,,,,,
LotID:,,,,,,,,,,,,,
Lot Description:,,,,,,,,,,,,,
Date Made:,1/21/2003 12:00 AM,,,,,,,,,,,,
Origin:,Other,,,,,,,,,,,,
Requestor:,Admin,,,,,,,,,,,,
Product ID:,Default product,,,,,,,,,,,,
Storage Temp:,R.T./AMB,,,,,,,,,,,,
Storage Delay:,0 days,,,,,,,,,,,,
Test Temp:,R.T./AMB,,,,,,,,,,,,
Start Time:,4/21/2018 9:39 AM,,,,,,,,,,,,
End Time:,4/21/2018 10:36 AM,,,,,,,,,,,,
Operator Instructions:,,,,,,,,,,,,,
Test,Cell,Rack,Shelf,Position,Cell ID,Step,Total Time (Seconds),Voltage (V),Current (A),Charge Capacity (mAh),Discharge Capacity (mAh),TC1 (Â°C),
1534,1,SBT2050,2,3,,0,1,4.13932,0,0,0,25.2,
1534,1,SBT2050,2,3,,0,21,4.13957,0,0,0,25.1,
1534,1,SBT2050,2,3,,0,41,4.13927,0,0,0,25.1,
1534,1,SBT2050,2,3,,1,61,3.89635,-2.6998,0,0.749,25.1,
1534,1,SBT2050,2,3,,1,81,3.8448,-2.6999,0,15.748,25.2,
1534,1,SBT2050,2,3,,1,101,3.821416,-2.6999,0,30.748,25.5,
1534,1,SBT2050,2,3,,1,121,3.80645,-2.6997,0,45.748,25.7,
1534,1,SBT2050,2,3,,1,141,3.7964,-2.7003,0,60.748,26,
1534,1,SBT2050,2,3,,1,161,3.789134,-2.6995,0,75.747,26.2,
1534,1,SBT2050,2,3,,1,181,3.7835,-2.6997,0,90.747,26.5,
1534,1,SBT2050,2,3,,1,201,3.7788,-2.6998,0,105.747,26.7,
1534,1,SBT2050,2,3,,1,221,3.77509,-2.7001,0,120.747,26.9,
1534,1,SBT2050,2,3,,1,241,3.77204,-2.7002,0,135.746,27.1,
1534,1,SBT2050,2,3,,1,261,3.76913,-2.7001,0,150.746,27.3,
1534,1,SBT2050,2,3,,1,281,3.76632,-2.7,0,165.746,27.4,
1534,1,SBT2050,2,3,,1,301,3.76363,-2.7001,0,180.746,27.5,
1534,1,SBT2050,2,3,,1,321,3.76115,-2.7,0,195.745,27.7,
1534,1,SBT2050,2,3,,1,341,3.75868,-2.7003,0,210.745,27.8,
1534,1,SBT2050,2,3,,1,361,3.75623,-2.6997,0,225.745,27.9,
1534,1,SBT2050,2,3,,1,381,3.75332,-2.7002,0,240.745,27.9,
1534,1,SBT2050,2,3,,1,401,3.75082,-2.6997,0,255.744,28,
1534,1,SBT2050,2,3,,1,421,3.74786,-2.7,0,270.744,28.1,
1534,1,SBT2050,2,3,,1,441,3.74503,-2.6997,0,285.744,28.2,
1534,1,SBT2050,2,3,,1,461,3.74242,-2.6997,0,300.744,28.3,
1534,1,SBT2050,2,3,,1,481,3.739404,-2.7,0,315.743,28.3,
1534,1,SBT2050,2,3,,1,501,3.73624,-2.6998,0,330.743,28.4,
1534,1,SBT2050,2,3,,1,521,3.73276,-2.6997,0,345.743,28.4,
1534,1,SBT2050,2,3,,1,541,3.72955,-2.6999,0,360.742,28.5,
1534,1,SBT2050,2,3,,1,561,3.726234,-2.7,0,375.742,28.5,
1534,1,SBT2050,2,3,,1,581,3.722634,-2.6997,0,390.742,28.5,
1534,1,SBT2050,2,3,,1,601,3.71869,-2.6999,0,405.742,28.5,
1534,1,SBT2050,2,3,,1,621,3.71488,-2.6997,0,420.741,28.5,
1534,1,SBT2050,2,3,,1,641,3.71117,-2.6998,0,435.741,28.5,
1534,1,SBT2050,2,3,,1,661,3.70713,-2.6998,0,450.741,28.5,
1534,1,SBT2050,2,3,,1,681,3.70337,-2.6997,0,465.741,28.5,
1534,1,SBT2050,2,3,,1,701,3.69924,-2.7003,0,480.741,28.5,
1534,1,SBT2050,2,3,,1,721,3.69521,-2.7002,0,495.74,28.5,
1534,1,SBT2050,2,3,,1,741,3.690818,-2.7003,0,510.74,28.5,
1534,1,SBT2050,2,3,,1,761,3.68665,-2.6996,0,525.74,28.5,
1534,1,SBT2050,2,3,,1,781,3.68235,-2.7001,0,540.739,28.5,
1534,1,SBT2050,2,3,,1,801,3.67807,-2.7001,0,555.739,28.5,
1534,1,SBT2050,2,3,,1,821,3.67368,-2.7,0,570.739,28.5,
1534,1,SBT2050,2,3,,1,841,3.66966,-2.7,0,585.739,28.4,
1534,1,SBT2050,2,3,,1,861,3.66471,-2.6998,0,600.739,28.4,
1534,1,SBT2050,2,3,,1,881,3.66052,-2.6999,0,615.738,28.4,
1534,1,SBT2050,2,3,,1,901,3.656268,-2.7002,0,630.738,28.4,
1534,1,SBT2050,2,3,,1,921,3.65162,-2.7001,0,645.738,28.4,
1534,1,SBT2050,2,3,,1,941,3.647176,-2.7001,0,660.737,28.3,
1534,1,SBT2050,2,3,,1,961,3.64262,-2.7005,0,675.737,28.3,
1534,1,SBT2050,2,3,,1,981,3.6379,-2.6998,0,690.737,28.3,
1534,1,SBT2050,2,3,,1,1001,3.63313,-2.7001,0,705.736,28.2,
1534,1,SBT2050,2,3,,1,1021,3.6286,-2.6999,0,720.736,28.3,
1534,1,SBT2050,2,3,,1,1041,3.624,-2.7001,0,735.736,28.2,
1534,1,SBT2050,2,3,,1,1061,3.61927,-2.7001,0,750.735,28.2,
1534,1,SBT2050,2,3,,1,1081,3.61419,-2.7,0,765.735,28.2,
1534,1,SBT2050,2,3,,1,1101,3.60965,-2.7001,0,780.735,28.2,
1534,1,SBT2050,2,3,,1,1121,3.60475,-2.7002,0,795.734,28.2,
1534,1,SBT2050,2,3,,1,1141,3.59999,-2.6996,0,810.734,28.2,
1534,1,SBT2050,2,3,,1,1161,3.59501,-2.7002,0,825.734,28.2,
1534,1,SBT2050,2,3,,1,1181,3.59001,-2.7,0,840.734,28.3,
1534,1,SBT2050,2,3,,1,1201,3.58495,-2.6996,0,855.734,28.2,
1534,1,SBT2050,2,3,,1,1221,3.5801,-2.7004,0,870.733,28.2,
1534,1,SBT2050,2,3,,1,1241,3.57494,-2.6999,0,885.733,28.2,
1534,1,SBT2050,2,3,,1,1261,3.56959,-2.6998,0,900.733,28.3,
1534,1,SBT2050,2,3,,1,1281,3.5648,-2.6999,0,915.732,28.3,
1534,1,SBT2050,2,3,,1,1301,3.55984,-2.6998,0,930.732,28.3,
1534,1,SBT2050,2,3,,1,1321,3.55474,-2.6998,0,945.732,28.3,
1534,1,SBT2050,2,3,,1,1341,3.54975,-2.6998,0,960.731,28.3,
1534,1,SBT2050,2,3,,1,1361,3.54443,-2.6998,0,975.731,28.4,
1534,1,SBT2050,2,3,,1,1381,3.53948,-2.6996,0,990.731,28.4,
1534,1,SBT2050,2,3,,1,1401,3.53434,-2.6999,0,1005.731,28.4,
1534,1,SBT2050,2,3,,1,1421,3.5292,-2.7002,0,1020.73,28.4,
1534,1,SBT2050,2,3,,1,1441,3.52416,-2.7,0,1035.73,28.4,
1534,1,SBT2050,2,3,,1,1461,3.51897,-2.7001,0,1050.73,28.4,
1534,1,SBT2050,2,3,,1,1481,3.513996,-2.7001,0,1065.729,28.4,
1534,1,SBT2050,2,3,,1,1501,3.50858,-2.6996,0,1080.729,28.4,
1534,1,SBT2050,2,3,,1,1521,3.503748,-2.6995,0,1095.729,28.4,
1534,1,SBT2050,2,3,,1,1541,3.4984,-2.6998,0,1110.729,28.4,
1534,1,SBT2050,2,3,,1,1561,3.49319,-2.6999,0,1125.728,28.5,
1534,1,SBT2050,2,3,,1,1581,3.48833,-2.6999,0,1140.728,28.5,
1534,1,SBT2050,2,3,,1,1601,3.48316,-2.7001,0,1155.728,28.5,
1534,1,SBT2050,2,3,,1,1621,3.4785,-2.7003,0,1170.727,28.5,
1534,1,SBT2050,2,3,,1,1641,3.47346,-2.7004,0,1185.727,28.5,
1534,1,SBT2050,2,3,,1,1661,3.46862,-2.6999,0,1200.727,28.5,
1534,1,SBT2050,2,3,,1,1681,3.46351,-2.6998,0,1215.726,28.5,
1534,1,SBT2050,2,3,,1,1701,3.45862,-2.6999,0,1230.726,28.5,
1534,1,SBT2050,2,3,,1,1721,3.4537,-2.7001,0,1245.726,28.5,
1534,1,SBT2050,2,3,,1,1741,3.44867,-2.6998,0,1260.726,28.5,
1534,1,SBT2050,2,3,,1,1761,3.44372,-2.6998,0,1275.725,28.5,
1534,1,SBT2050,2,3,,1,1781,3.43875,-2.7001,0,1290.725,28.5,
1534,1,SBT2050,2,3,,1,1801,3.43426,-2.7002,0,1305.725,28.5,
1534,1,SBT2050,2,3,,1,1821,3.42926,-2.7,0,1320.724,28.5,
1534,1,SBT2050,2,3,,1,1841,3.42424,-2.7002,0,1335.724,28.5,
1534,1,SBT2050,2,3,,1,1861,3.41962,-2.6999,0,1350.724,28.5,
1534,1,SBT2050,2,3,,1,1881,3.41463,-2.6996,0,1365.724,28.6,
1534,1,SBT2050,2,3,,1,1901,3.41013,-2.7002,0,1380.723,28.6,
1534,1,SBT2050,2,3,,1,1921,3.405202,-2.6998,0,1395.723,28.6,
1534,1,SBT2050,2,3,,1,1941,3.40034,-2.7001,0,1410.723,28.6,
1534,1,SBT2050,2,3,,1,1961,3.39556,-2.7001,0,1425.723,28.6,
1534,1,SBT2050,2,3,,1,1981,3.390754,-2.7004,0,1440.722,28.6,
1534,1,SBT2050,2,3,,1,2001,3.38624,-2.6998,0,1455.722,28.6,
1534,1,SBT2050,2,3,,1,2021,3.38152,-2.6999,0,1470.722,28.6,
1534,1,SBT2050,2,3,,1,2041,3.37642,-2.6998,0,1485.721,28.7,
1534,1,SBT2050,2,3,,1,2061,3.37187,-2.6999,0,1500.721,28.7,
1534,1,SBT2050,2,3,,1,2081,3.366988,-2.6998,0,1515.721,28.7,
1534,1,SBT2050,2,3,,1,2101,3.36205,-2.7001,0,1530.721,28.7,
1534,1,SBT2050,2,3,,1,2121,3.35726,-2.6999,0,1545.72,28.7,
1534,1,SBT2050,2,3,,1,2141,3.35242,-2.6997,0,1560.72,28.7,
1534,1,SBT2050,2,3,,1,2161,3.34732,-2.6999,0,1575.72,28.7,
1534,1,SBT2050,2,3,,1,2181,3.342423,-2.7002,0,1590.72,28.8,
1534,1,SBT2050,2,3,,1,2201,3.3374,-2.6996,0,1605.719,28.8,
1534,1,SBT2050,2,3,,1,2221,3.33229,-2.6998,0,1620.719,28.8,
1534,1,SBT2050,2,3,,1,2241,3.32712,-2.7001,0,1635.719,28.8,
1534,1,SBT2050,2,3,,1,2261,3.32213,-2.7004,0,1650.719,28.9,
1534,1,SBT2050,2,3,,1,2281,3.31671,-2.6998,0,1665.718,28.9,
1534,1,SBT2050,2,3,,1,2301,3.3118,-2.7004,0,1680.718,28.9,
1534,1,SBT2050,2,3,,1,2321,3.30638,-2.6997,0,1695.718,28.9,
1534,1,SBT2050,2,3,,1,2341,3.300962,-2.7001,0,1710.717,29,
1534,1,SBT2050,2,3,,1,2361,3.29557,-2.7,0,1725.717,29,
1534,1,SBT2050,2,3,,1,2381,3.28994,-2.7001,0,1740.717,29,
1534,1,SBT2050,2,3,,1,2401,3.28407,-2.6999,0,1755.716,29,
1534,1,SBT2050,2,3,,1,2421,3.278246,-2.7,0,1770.716,29.1,
1534,1,SBT2050,2,3,,1,2441,3.27234,-2.7002,0,1785.716,29.1,
1534,1,SBT2050,2,3,,1,2461,3.2668,-2.6998,0,1800.716,29.2,
1534,1,SBT2050,2,3,,1,2481,3.2606,-2.6997,0,1815.716,29.2,
1534,1,SBT2050,2,3,,1,2501,3.25427,-2.7001,0,1830.715,29.2,
1534,1,SBT2050,2,3,,1,2521,3.24776,-2.7001,0,1845.715,29.3,
1534,1,SBT2050,2,3,,1,2541,3.24161,-2.7004,0,1860.715,29.3,
1534,1,SBT2050,2,3,,1,2561,3.23493,-2.7002,0,1875.714,29.3,
1534,1,SBT2050,2,3,,1,2581,3.22809,-2.7003,0,1890.714,29.4,
1534,1,SBT2050,2,3,,1,2601,3.22117,-2.6997,0,1905.714,29.4,
1534,1,SBT2050,2,3,,1,2621,3.21384,-2.6999,0,1920.714,29.4,
1534,1,SBT2050,2,3,,1,2641,3.20653,-2.7005,0,1935.713,29.5,
1534,1,SBT2050,2,3,,1,2661,3.19896,-2.7001,0,1950.713,29.5,
1534,1,SBT2050,2,3,,1,2681,3.19142,-2.6998,0,1965.713,29.5,
1534,1,SBT2050,2,3,,1,2701,3.18333,-2.7,0,1980.713,29.6,
1534,1,SBT2050,2,3,,1,2721,3.17525,-2.7,0,1995.712,29.7,
1534,1,SBT2050,2,3,,1,2741,3.16692,-2.7002,0,2010.712,29.7,
1534,1,SBT2050,2,3,,1,2761,3.158032,-2.7,0,2025.712,29.8,
1534,1,SBT2050,2,3,,1,2781,3.149112,-2.7002,0,2040.712,29.9,
1534,1,SBT2050,2,3,,1,2801,3.14014,-2.7002,0,2055.711,29.9,
1534,1,SBT2050,2,3,,1,2821,3.13009,-2.7,0,2070.711,30,
1534,1,SBT2050,2,3,,1,2841,3.12036,-2.6996,0,2085.711,30.1,
1534,1,SBT2050,2,3,,1,2861,3.10967,-2.6999,0,2100.711,30.1,
1534,1,SBT2050,2,3,,1,2881,3.09899,-2.7,0,2115.71,30.2,
1534,1,SBT2050,2,3,,1,2901,3.08782,-2.7003,0,2130.71,30.3,
1534,1,SBT2050,2,3,,1,2921,3.07614,-2.7001,0,2145.71,30.4,
1534,1,SBT2050,2,3,,1,2941,3.0642,-2.6998,0,2160.71,30.5,
1534,1,SBT2050,2,3,,1,2961,3.05166,-2.7001,0,2175.709,30.5,
1534,1,SBT2050,2,3,,1,2981,3.03828,-2.6998,0,2190.709,30.6,
1534,1,SBT2050,2,3,,1,3001,3.02471,-2.7,0,2205.709,30.7,
1534,1,SBT2050,2,3,,1,3021,3.01052,-2.7001,0,2220.709,30.8,
1534,1,SBT2050,2,3,,1,3041,2.99562,-2.7,0,2235.708,30.9,
1534,1,SBT2050,2,3,,1,3061,2.97999,-2.7001,0,2250.708,31,
1534,1,SBT2050,2,3,,1,3081,2.9632,-2.6996,0,2265.708,31.1,
1534,1,SBT2050,2,3,,1,3101,2.945664,-2.6999,0,2280.708,31.3,
1534,1,SBT2050,2,3,,1,3121,2.9268,-2.6999,0,2295.707,31.4,
1534,1,SBT2050,2,3,,1,3141,2.906585,-2.6999,0,2310.707,31.5,
1534,1,SBT2050,2,3,,1,3161,2.884471,-2.6998,0,2325.707,31.7,
1534,1,SBT2050,2,3,,1,3181,2.86077,-2.6997,0,2340.707,31.8,
1534,1,SBT2050,2,3,,1,3201,2.83469,-2.7002,0,2355.706,32,
1534,1,SBT2050,2,3,,1,3221,2.806217,-2.6998,0,2370.706,32.1,
1534,1,SBT2050,2,3,,1,3241,2.77455,-2.7,0,2385.706,32.3,
1534,1,SBT2050,2,3,,1,3261,2.73903,-2.6998,0,2400.705,32.5,
1534,1,SBT2050,2,3,,1,3281,2.69989,-2.7001,0,2415.705,32.8,
1534,1,SBT2050,2,3,,1,3301,2.655928,-2.7,0,2430.705,33,
1534,1,SBT2050,2,3,,1,3321,2.60629,-2.7,0,2445.704,33.3,
1534,1,SBT2050,2,3,,1,3341,2.54776,-2.7,0,2460.704,33.6,
1534,1,SBT2050,2,3,,2,3360,3.02718,0,0,2471.278,33.9,
1534,1,SBT2050,2,3,,2,3380,3.20721,0,0,2471.278,33.6,
1534,1,SBT2050,2,3,,2,3400,3.25023,0,0,2471.278,33,
1534,1,SBT2050,2,3,,2,3415.098,3.26935,-9.9E-05,0,2471.278,,