File: ORRG/Test1578.csv
Request Year:,2018,,,,,,,,,,,,
Test:,1578,,,,,,,,,,,,
Test Description:,,,,,,,,,,,,,
TestRegime Name:,Aging_test caseB_1,,,,,,,,,,,,
TestRegime Suffix:,SHP_LC,,,,,,,,,,,,
TestRegime CellSize:,18650,,,,,,,,,,,,
TestRegime Version:,3,,,,,,,,,,,,
Number Of Cells:,1,,,,,,,,,,,,
LotID:,,,,,,,,,,,,,
Lot Description:,,,,,,,,,,,,,
Date Made:,1/21/2003 12:00 AM,,,,,,,,,,,,
Origin:,Other,,,,,,,,,,,,
Requestor:,Admin,,,,,,,,,,,,
Product ID:,Default product,,,,,,,,,,,,
Storage Temp:,R.T./AMB,,,,,,,,,,,,
Storage Delay:,0 days,,,,,,,,,,,,
Test Temp:,R.T./AMB,,,,,,,,,,,,
Start Time:,4/27/2018 10:53 PM,,,,,,,,,,,,
End Time:,4/28/2018 12:10 AM,,,,,,,,,,,,
Operator Instructions:,,,,,,,,,,,,,
Test,Cell,Rack,Shelf,Position,Cell ID,Step,Total Time (Seconds),Voltage (V),Current (A),Charge Capacity (mAh),Discharge Capacity (mAh),Trs (Â°C),
1578,1,SBT2050,2,3,,0,0.1,3.33528,0,0,0,,
1578,1,SBT2050,2,3,,0,24.2,3.33526,0,0,0,,
1578,1,SBT2050,2,3,,0,48.3,3.33549,0,0,0,,
1578,1,SBT2050,2,3,,0,72.4,3.33525,0,0,0,,
1578,1,SBT2050,2,3,,0,96.5,3.33541,0,0,0,,
1578,1,SBT2050,2,3,,0,120.6,3.33558,0,0,0,,
1578,1,SBT2050,2,3,,0,144.7,3.33588,0,0,0,,
1578,1,SBT2050,2,3,,0,168.8,3.33545,0,0,0,,
1578,1,SBT2050,2,3,,0,192.9,3.33571,0,0,0,,
1578,1,SBT2050,2,3,,0,217,3.33569,0,0,0,,
1578,1,SBT2050,2,3,,0,241.1,3.33593,0,0,0,,
1578,1,SBT2050,2,3,,0,265.2,3.33602,0,0,0,,
1578,1,SBT2050,2,3,,0,289.3,3.335901,0,0,0,,
1578,1,SBT2050,2,3,,0,313.4,3.33583,0,0,0,,
1578,1,SBT2050,2,3,,0,337.5,3.33573,0,0,0,,
1578,1,SBT2050,2,3,,0,361.6,3.33604,0,0,0,,
1578,1,SBT2050,2,3,,0,385.7,3.33616,0,0,0,,
1578,1,SBT2050,2,3,,0,409.8,3.33609,0,0,0,,
1578,1,SBT2050,2,3,,0,433.9,3.336244,0,0,0,,
1578,1,SBT2050,2,3,,0,458,3.33607,0,0,0,,
1578,1,SBT2050,2,3,,0,482.1,3.336231,0,0,0,,
1578,1,SBT2050,2,3,,0,506.2,3.33618,0,0,0,,
1578,1,SBT2050,2,3,,0,530.3,3.33625,0,0,0,,
1578,1,SBT2050,2,3,,0,554.4,3.33631,0,0,0,,
1578,1,SBT2050,2,3,,0,578.5,3.33673,0,0,0,,
1578,1,SBT2050,2,3,,0,602.6,3.33628,0,0,0,,
1578,1,SBT2050,2,3,,0,626.7,3.336518,0,0,0,,
1578,1,SBT2050,2,3,,0,650.8,3.33664,0,0,0,,
1578,1,SBT2050,2,3,,0,674.9,3.33665,0,0,0,,
1578,1,SBT2050,2,3,,0,699,3.33667,0,0,0,,
1578,1,SBT2050,2,3,,0,723.1,3.336625,0,0,0,,
1578,1,SBT2050,2,3,,0,747.2,3.33669,0,0,0,,
1578,1,SBT2050,2,3,,0,771.3,3.33681,0,0,0,,
1578,1,SBT2050,2,3,,0,795.4,3.33651,0,0,0,,
1578,1,SBT2050,2,3,,0,819.5,3.33657,0,0,0,,
1578,1,SBT2050,2,3,,0,843.6,3.33684,0,0,0,,
1578,1,SBT2050,2,3,,0,867.7,3.33654,0,0,0,,
1578,1,SBT2050,2,3,,0,891.8,3.33652,0,0,0,,
1578,1,SBT2050,2,3,,0,915.9,3.33693,0,0,0,,
1578,1,SBT2050,2,3,,0,940,3.33697,0,0,0,,
1578,1,SBT2050,2,3,,0,964.1,3.336703,0,0,0,,
1578,1,SBT2050,2,3,,0,988.2,3.336873,0,0,0,,
1578,1,SBT2050,2,3,,0,1012.3,3.33697,0,0,0,,
1578,1,SBT2050,2,3,,0,1036.4,3.33697,0,0,0,,
1578,1,SBT2050,2,3,,0,1060.5,3.33708,0,0,0,,
1578,1,SBT2050,2,3,,0,1084.6,3.33712,0,0,0,,
1578,1,SBT2050,2,3,,0,1108.7,3.33723,0,0,0,,
1578,1,SBT2050,2,3,,0,1132.8,3.33723,0,0,0,,
1578,1,SBT2050,2,3,,0,1156.9,3.33727,0,0,0,,
1578,1,SBT2050,2,3,,0,1181,3.33708,0,0,0,,
1578,1,SBT2050,2,3,,0,1205.1,3.33729,0,0,0,,
1578,1,SBT2050,2,3,,0,1229.2,3.33721,0,0,0,,
1578,1,SBT2050,2,3,,0,1253.3,3.33728,0,0,0,,
1578,1,SBT2050,2,3,,0,1277.4,3.33728,0,0,0,,
1578,1,SBT2050,2,3,,0,1301.5,3.33699,0,0,0,,
1578,1,SBT2050,2,3,,0,1325.6,3.33708,0,0,0,,
1578,1,SBT2050,2,3,,0,1349.7,3.33713,0,0,0,,
1578,1,SBT2050,2,3,,0,1373.8,3.33733,0,0,0,,
1578,1,SBT2050,2,3,,0,1397.9,3.337503,0,0,0,,
1578,1,SBT2050,2,3,,0,1422,3.337446,0,0,0,,
1578,1,SBT2050,2,3,,0,1446.1,3.33741,0,0,0,,
1578,1,SBT2050,2,3,,0,1470.2,3.33773,0,0,0,,
1578,1,SBT2050,2,3,,0,1494.3,3.33777,0,0,0,,
1578,1,SBT2050,2,3,,0,1518.4,3.33784,0,0,0,,
1578,1,SBT2050,2,3,,0,1542.5,3.33756,0,0,0,,
1578,1,SBT2050,2,3,,0,1566.6,3.33768,0,0,0,,
1578,1,SBT2050,2,3,,0,1590.7,3.33767,0,0,0,,
1578,1,SBT2050,2,3,,0,1614.8,3.33775,0,0,0,,
1578,1,SBT2050,2,3,,0,1638.9,3.33777,0,0,0,,
1578,1,SBT2050,2,3,,0,1663,3.33751,0,0,0,,
1578,1,SBT2050,2,3,,0,1687.1,3.33757,0,0,0,,
1578,1,SBT2050,2,3,,0,1711.2,3.33764,0,0,0,,
1578,1,SBT2050,2,3,,0,1735.3,3.33764,0,0,0,,
1578,1,SBT2050,2,3,,0,1759.4,3.337514,0,0,0,,
1578,1,SBT2050,2,3,,0,1783.5,3.33771,0,0,0,,
1578,1,SBT2050,2,3,,7,1807.5,3.63501,3.96,3.117,0,,
1578,1,SBT2050,2,3,,7,1831.3,4.00025,8.671,55.993,0,,
1578,1,SBT2050,2,3,,7,1855.2,4.02038,7.87,110.274,0,,
1578,1,SBT2050,2,3,,7,1879,4.0116,7.373,160.625,0,31.1,
1578,1,SBT2050,2,3,,7,1902.8,3.99256,6.993,208.099,0,,
1578,1,SBT2050,2,3,,7,1926.7,3.97677,6.711,253.55,0,,
1578,1,SBT2050,2,3,,7,1950.5,3.96452,6.489,297.116,0,,
1578,1,SBT2050,2,3,,7,1974.3,3.95674,6.314,339.413,0,,
1578,1,SBT2050,2,3,,7,1998.2,3.95297,6.169,380.851,0,,
1578,1,SBT2050,2,3,,7,2022,3.9508,6.035,421.189,0,,
1578,1,SBT2050,2,3,,7,2045.8,3.951044,5.92,460.724,0,,
1578,1,SBT2050,2,3,,7,2069.7,3.95352,5.814,499.651,0,,
1578,1,SBT2050,2,3,,7,2093.5,3.95584,5.701,537.727,0,,
1578,1,SBT2050,2,3,,7,2117.4,3.9593,5.586,575.186,0,,
1578,1,SBT2050,2,3,,7,2141.2,3.96312,5.475,611.704,0,,
1578,1,SBT2050,2,3,,7,2165,3.96729,5.353,647.514,0,,
1578,1,SBT2050,2,3,,7,2188.9,3.9719,5.236,682.696,0,,
1578,1,SBT2050,2,3,,7,2212.7,3.97636,5.121,716.897,0,,
1578,1,SBT2050,2,3,,7,2236.5,3.980896,5.001,750.358,0,,
1578,1,SBT2050,2,3,,7,2260.4,3.98581,4.887,783.179,0,,
1578,1,SBT2050,2,3,,7,2284.2,3.99033,4.776,815.123,0,,
1578,1,SBT2050,2,3,,7,2308,3.99518,4.6634,846.314,0,,
1578,1,SBT2050,2,3,,7,2331.9,3.99939,4.5452,876.89,0,,
1578,1,SBT2050,2,3,,7,2355.7,4.00414,4.4342,906.572,0,,
1578,1,SBT2050,2,3,,7,2379.5,4.008322,4.3201,935.492,0,,
1578,1,SBT2050,2,3,,7,2403.4,4.01243,4.211,963.783,0,,
1578,1,SBT2050,2,3,,7,2427.2,4.01847,4.141,991.375,0,,
1578,1,SBT2050,2,3,,7,2451,4.02533,4.0803,1018.535,0,,
1578,1,SBT2050,2,3,,7,2474.9,4.031848,4.0037,1045.356,0,,
1578,1,SBT2050,2,3,,7,2498.7,4.03844,3.9416,1071.619,0,,
1578,1,SBT2050,2,3,,7,2522.6,4.045064,3.8727,1097.562,0,,
1578,1,SBT2050,2,3,,7,2546.4,4.05141,3.8066,1122.946,0,,
1578,1,SBT2050,2,3,,7,2570.2,4.0574,3.7409,1147.902,0,,
1578,1,SBT2050,2,3,,7,2594.1,4.06345,3.6734,1172.525,0,,
1578,1,SBT2050,2,3,,7,2617.9,4.06979,3.6116,1196.647,0,,
1578,1,SBT2050,2,3,,7,2641.7,4.07511,3.5451,1220.318,0,,
1578,1,SBT2050,2,3,,7,2665.6,4.08138,3.4911,1243.683,0,,
1578,1,SBT2050,2,3,,7,2689.4,4.08674,3.4225,1266.55,0,,
1578,1,SBT2050,2,3,,7,2713.2,4.09195,3.3548,1288.962,0,,
1578,1,SBT2050,2,3,,7,2737.1,4.09709,3.2924,1311.025,0,,
1578,1,SBT2050,2,3,,7,2760.9,4.10148,3.2213,1332.596,0,,
1578,1,SBT2050,2,3,,7,2784.7,4.10633,3.1681,1353.715,0,,
1578,1,SBT2050,2,3,,7,2808.6,4.110816,3.0985,1374.488,0,,
1578,1,SBT2050,2,3,,7,2832.4,4.11498,3.0371,1394.768,0,,
1578,1,SBT2050,2,3,,7,2856.2,4.11909,2.9777,1414.617,0,,
1578,1,SBT2050,2,3,,7,2880.1,4.12308,2.9085,1434.152,0,,
1578,1,SBT2050,2,3,,7,2903.9,4.12798,2.8695,1453.247,0,,
1578,1,SBT2050,2,3,,7,2927.8,4.13228,2.8101,1472.091,0,,
1578,1,SBT2050,2,3,,7,2951.6,4.137726,2.7746,1490.532,0,,
1578,1,SBT2050,2,3,,7,2975.4,4.1422,2.7219,1508.688,0,,
1578,1,SBT2050,2,3,,7,2999.3,4.14683,2.6755,1526.597,0,,
1578,1,SBT2050,2,3,,7,3023.1,4.152,2.6443,1544.177,0,,
1578,1,SBT2050,2,3,,7,3046.9,4.15759,2.6153,1561.517,0,,
1578,1,SBT2050,2,3,,7,3070.8,4.16186,2.5635,1578.679,0,,
1578,1,SBT2050,2,3,,7,3094.6,4.16619,2.5141,1595.478,0,,
1578,1,SBT2050,2,3,,7,3118.4,4.17101,2.482,1612.012,0,,
1578,1,SBT2050,2,3,,7,3142.3,4.17513,2.4333,1628.348,0,,
1578,1,SBT2050,2,3,,7,3166.1,4.17987,2.3988,1644.33,0,,
1578,1,SBT2050,2,3,,7,3189.9,4.18446,2.3682,1660.066,0,,
1578,1,SBT2050,2,3,,7,3213.8,4.18847,2.3203,1675.613,0,,
1578,1,SBT2050,2,3,,7,3237.6,4.192752,2.2877,1690.831,0,,
1578,1,SBT2050,2,3,,7,3261.4,4.196966,2.2503,1705.842,0,,
1578,1,SBT2050,2,3,,7,3285.3,4.20086,2.2078,1720.622,0,,
1578,1,SBT2050,2,3,,7,3309.1,4.2056,2.1771,1735.108,0,,
1578,1,SBT2050,2,3,,7,3333,4.209996,2.1461,1749.428,0,30.6,
1578,1,SBT2050,2,3,,7,3356.8,4.21385,2.1151,1763.484,0,,
1578,1,SBT2050,2,3,,7,3380.6,4.21833,2.0826,1777.339,0,,
1578,1,SBT2050,2,3,,7,3404.5,4.22248,2.0503,1791.044,0,,
1578,1,SBT2050,2,3,,7,3428.3,4.22673,2.018,1804.482,0,,
1578,1,SBT2050,2,3,,7,3452.1,4.23073,1.9859,1817.71,0,,
1578,1,SBT2050,2,3,,7,3476,4.23409,1.9427,1830.747,0,,
1578,1,SBT2050,2,3,,7,3499.8,4.23874,1.924,1843.525,0,,
1578,1,SBT2050,2,3,,7,3523.6,4.24248,1.8921,1856.123,0,,
1578,1,SBT2050,2,3,,7,3547.5,4.24643,1.8609,1868.562,0,,
1578,1,SBT2050,2,3,,7,3571.3,4.25027,1.8301,1880.749,0,,
1578,1,SBT2050,2,3,,7,3595.1,4.25423,1.7998,1892.726,0,,
1578,1,SBT2050,2,3,,7,3619,4.257686,1.7694,1904.567,0,,
1578,1,SBT2050,2,3,,7,3642.8,4.26174,1.7394,1916.17,0,,
1578,1,SBT2050,2,3,,7,3666.6,4.2663,1.722,1927.611,0,,
1578,1,SBT2050,2,3,,7,3690.5,4.26981,1.6917,1938.928,0,,
1578,1,SBT2050,2,3,,7,3714.3,4.27343,1.6619,1949.985,0,,
1578,1,SBT2050,2,3,,7,3738.141,4.27696,1.632,1960.901,0,,
1578,1,SBT2050,2,3,,7,3762,4.28029,1.6038,1971.65,0,,
1578,1,SBT2050,2,3,,7,3785.8,4.28473,1.5866,1982.191,0,,
1578,1,SBT2050,2,3,,7,3809.7,4.28823,1.5571,1992.615,0,,
1578,1,SBT2050,2,3,,7,3833.5,4.2916,1.5278,2002.812,0,,
1578,1,SBT2050,2,3,,7,3857.3,4.296292,1.5125,2012.862,0,,
1578,1,SBT2050,2,3,,7,3881.2,4.29918,1.4836,2022.784,0,,
1578,1,SBT2050,2,3,,7,3905,4.302266,1.4551,2032.51,0,,
1578,1,SBT2050,2,3,,7,3928.8,4.30666,1.4411,2042.081,0,,
1578,1,SBT2050,2,3,,7,3952.7,4.30971,1.4131,2051.55,0,,
1578,1,SBT2050,2,3,,7,3976.5,4.31393,1.3986,2060.841,0,,
1578,1,SBT2050,2,3,,7,4000.3,4.316538,1.3706,2070.001,0,,
1578,1,SBT2050,2,3,,7,4024.2,4.32117,1.3569,2079.054,0,,
1578,1,SBT2050,2,3,,7,4048,4.32395,1.3295,2087.933,0,,
1578,1,SBT2050,2,3,,7,4071.8,4.32817,1.3168,2096.678,0,,
1578,1,SBT2050,2,3,,7,4095.7,4.331354,1.2922,2105.345,0,,
1578,1,SBT2050,2,3,,7,4119.5,4.335084,1.2767,2113.84,0,,
1578,1,SBT2050,2,3,,7,4143.3,4.33892,1.2638,2122.238,0,,
1578,1,SBT2050,2,3,,7,4167.2,4.34237,1.2402,2130.545,0,,
1578,1,SBT2050,2,3,,7,4191,4.34545,1.2253,2138.689,0,,
1578,1,SBT2050,2,3,,7,4214.9,4.34908,1.2114,2146.778,0,,
1578,1,SBT2050,2,3,,7,4238.7,4.35295,1.2,2154.728,0,,
1578,1,SBT2050,2,3,,7,4262.5,4.35507,1.1754,2162.57,0,,
1578,1,SBT2050,2,3,,7,4286.4,4.35845,1.1633,2170.364,0,,
1578,1,SBT2050,2,3,,7,4310.2,4.36153,1.1507,2178.013,0,,
1578,1,SBT2050,2,3,,7,4334,4.36583,1.1467,2185.611,0,,
1578,1,SBT2050,2,3,,7,4357.9,4.369018,1.1336,2193.17,0,,
1578,1,SBT2050,2,3,,7,4381.7,4.37135,1.1195,2200.608,0,,
1578,1,SBT2050,2,3,,7,4405.5,4.37399,1.1059,2207.964,0,,
1578,1,SBT2050,2,3,,7,4429.4,4.37614,1.0925,2215.265,0,,
1578,1,SBT2050,2,3,,7,4453.2,4.37873,1.0816,2222.449,0,,
1578,1,SBT2050,2,3,,7,4477,4.38118,1.0695,2229.558,0,,
1578,1,SBT2050,2,3,,7,4500.9,4.3827,1.0593,2236.614,0,,
1578,1,SBT2050,2,3,,7,4524.7,4.38464,1.0474,2243.575,0,,
1578,1,SBT2050,2,3,,7,4548.5,4.38638,1.0357,2250.461,0,,
1578,1,SBT2050,2,3,,7,4572.4,4.38783,1.0273,2257.315,0,,
1578,1,SBT2050,2,3,,7,4596.2,4.389,1.0192,2264.079,0,,
1578,1,SBT2050,2,3,,7,4620.1,4.39019,1.0116,2270.824,0,,
1578,1,SBT2050,2,3,,7,4626.688,4.389964,1.0094,2272.674,0,,