File: ORRG/Test1544.csv
Request Year:,2018,,,,,,,,,,,,
Test:,1544,,,,,,,,,,,,
Test Description:,,,,,,,,,,,,,
TestRegime Name:,Aging_Performance,,,,,,,,,,,,
TestRegime Suffix:,SHP_LC,,,,,,,,,,,,
TestRegime CellSize:,18650,,,,,,,,,,,,
TestRegime Version:,1,,,,,,,,,,,,
Number Of Cells:,1,,,,,,,,,,,,
LotID:,,,,,,,,,,,,,
Lot Description:,,,,,,,,,,,,,
Date Made:,1/21/2003 12:00 AM,,,,,,,,,,,,
Origin:,Other,,,,,,,,,,,,
Requestor:,Admin,,,,,,,,,,,,
Product ID:,Default product,,,,,,,,,,,,
Storage Temp:,R.T./AMB,,,,,,,,,,,,
Storage Delay:,0 days,,,,,,,,,,,,
Test Temp:,R.T./AMB,,,,,,,,,,,,
Start Time:,4/24/2018 6:24 AM,,,,,,,,,,,,
End Time:,4/24/2018 5:51 PM,,,,,,,,,,,,
Operator Instructions:,,,,,,,,,,,,,
Test,Cell,Rack,Shelf,Position,Cell ID,Step,Total Time (Seconds),Voltage (V),Current (A),Charge Capacity (mAh),Discharge Capacity (mAh),TC1 (Â°C),
1544,1,SBT2050,2,3,,0,1,3.37227,0,0,0,24.7,
1544,1,SBT2050,2,3,,0,269,3.37326,0,0,0,25.1,
1544,1,SBT2050,2,3,,1,537,2.49994,-1.0866,0,110.474,29.5,
1544,1,SBT2050,2,3,,1,805,2.500038,-0.6102,0,171.321,29,
1544,1,SBT2050,2,3,,1,1073,2.49978,-0.39038,0,207.478,27.9,
1544,1,SBT2050,2,3,,1,1341,2.49997,-0.2824,0,232.063,27,
1544,1,SBT2050,2,3,,1,1609,2.500038,-0.22062,0,250.619,26.4,
1544,1,SBT2050,2,3,,1,1877,2.49992,-0.1804,0,265.469,26.1,
1544,1,SBT2050,2,3,,1,2145,2.49982,-0.15163,0,277.786,25.9,
1544,1,SBT2050,2,3,,1,2413,2.49993,-0.12897,0,288.2,25.7,
1544,1,SBT2050,2,3,,1,2681,2.49994,-0.11136,0,297.112,25.6,
1544,1,SBT2050,2,3,,1,2949,2.499883,-0.09701,0,304.839,25.5,
1544,1,SBT2050,2,3,,1,3217,2.49999,-0.08544,0,311.612,25.4,
1544,1,SBT2050,2,3,,1,3485,2.500038,-0.07577,0,317.608,25.4,
1544,1,SBT2050,2,3,,1,3753,2.49991,-0.06671,0,322.918,25.3,
1544,1,SBT2050,2,3,,1,4021,2.50001,-0.05925,0,327.606,25.3,
1544,1,SBT2050,2,3,,1,4289,2.50003,-0.05233,0,331.75,25.3,
1544,1,SBT2050,2,3,,1,4557,2.49995,-0.046212,0,335.419,25.2,
1544,1,SBT2050,2,3,,1,4825,2.49998,-0.040864,0,338.668,25.2,
1544,1,SBT2050,2,3,,1,5093,2.49993,-0.036116,0,341.537,25.2,
1544,1,SBT2050,2,3,,1,5361,2.500062,-0.031863,0,344.065,25.2,
1544,1,SBT2050,2,3,,1,5629,2.500038,-0.027937,0,346.286,25.1,
1544,1,SBT2050,2,3,,1,5897,2.50017,-0.024602,0,348.233,25.1,
1544,1,SBT2050,2,3,,1,6165,2.50005,-0.021708,0,349.944,25.1,
1544,1,SBT2050,2,3,,1,6433,2.5,-0.018878,0,351.452,25.1,
1544,1,SBT2050,2,3,,1,6701,2.49986,-0.016529,0,352.774,25.1,
1544,1,SBT2050,2,3,,1,6969,2.50001,-0.014451,0,353.928,25.1,
1544,1,SBT2050,2,3,,1,7237,2.500038,-0.012645,0,354.935,25,
1544,1,SBT2050,2,3,,1,7505,2.49997,-0.011019,0,355.814,25,
1544,1,SBT2050,2,3,,2,7772,3.59132,2.9362,76.353,356.324,25.9,
1544,1,SBT2050,2,3,,2,8040,3.71639,2.9355,294.918,356.324,29,
1544,1,SBT2050,2,3,,2,8308,3.763858,2.9358,513.482,356.324,30.1,
1544,1,SBT2050,2,3,,2,8576,3.81044,2.936,732.047,356.324,30.2,
1544,1,SBT2050,2,3,,2,8844,3.8651,2.9361,950.611,356.324,30.3,
1544,1,SBT2050,2,3,,2,9112,3.93266,2.9359,1169.175,356.324,30.5,
1544,1,SBT2050,2,3,,2,9380,4.0086,2.9361,1387.739,356.324,30.7,
1544,1,SBT2050,2,3,,2,9648,4.08867,2.9356,1606.303,356.324,31,
1544,1,SBT2050,2,3,,2,9916,4.15008,2.6515,1821.904,356.324,31.1,
1544,1,SBT2050,2,3,,2,10184,4.15026,1.8442,1987.478,356.324,29.9,
1544,1,SBT2050,2,3,,2,10452,4.14995,1.315,2103.551,356.324,28.5,
1544,1,SBT2050,2,3,,2,10720,4.14995,0.9851,2188.274,356.324,27.4,
1544,1,SBT2050,2,3,,2,10988,4.15002,0.7669,2252.935,356.324,26.7,
1544,1,SBT2050,2,3,,2,11256,4.15004,0.6158,2304.029,356.324,26.2,
1544,1,SBT2050,2,3,,2,11524,4.15012,0.5057,2345.516,356.324,25.9,
1544,1,SBT2050,2,3,,2,11792,4.150092,0.42499,2380.029,356.324,25.7,
1544,1,SBT2050,2,3,,2,12060,4.15013,0.36517,2409.352,356.324,25.6,
1544,1,SBT2050,2,3,,2,12328,4.14989,0.31639,2434.646,356.324,25.5,
1544,1,SBT2050,2,3,,2,12596,4.15018,0.27715,2456.667,356.324,25.4,
1544,1,SBT2050,2,3,,2,12864,4.15014,0.24415,2476.017,356.324,25.4,
1544,1,SBT2050,2,3,,2,13132,4.150068,0.21678,2493.144,356.324,25.3,
1544,1,SBT2050,2,3,,2,13400,4.15,0.19606,2508.497,356.324,25.3,
1544,1,SBT2050,2,3,,2,13668,4.15001,0.17767,2522.377,356.324,25.3,
1544,1,SBT2050,2,3,,2,13936,4.150056,0.16142,2534.993,356.324,25.2,
1544,1,SBT2050,2,3,,2,14204,4.14996,0.14775,2546.508,356.324,25.2,
1544,1,SBT2050,2,3,,2,14472,4.14998,0.13569,2557.064,356.324,25.2,
1544,1,SBT2050,2,3,,2,14740,4.15001,0.12521,2566.758,356.324,25.2,
1544,1,SBT2050,2,3,,2,15008,4.15008,0.11579,2575.682,356.324,25.2,
1544,1,SBT2050,2,3,,2,15276,4.15004,0.10667,2583.937,356.324,25.2,
1544,1,SBT2050,2,3,,2,15544,4.15013,0.09899,2591.601,356.324,25.2,
1544,1,SBT2050,2,3,,2,15812,4.150104,0.09241,2598.72,356.324,25.1,
1544,1,SBT2050,2,3,,2,16080,4.1499,0.08599,2605.35,356.324,25.1,
1544,1,SBT2050,2,3,,2,16348,4.14981,0.08017,2611.535,356.324,25.1,
1544,1,SBT2050,2,3,,2,16616,4.14985,0.07521,2617.318,356.324,25.1,
1544,1,SBT2050,2,3,,2,16884,4.14987,0.07011,2622.726,356.324,25.1,
1544,1,SBT2050,2,3,,2,17152,4.14989,0.06554,2627.796,356.324,25.1,
1544,1,SBT2050,2,3,,2,17420,4.150092,0.06181,2632.561,356.324,25.1,
1544,1,SBT2050,2,3,,2,17688,4.14987,0.05865,2637.038,356.324,25.1,
1544,1,SBT2050,2,3,,2,17956,4.14994,0.05522,2641.247,356.324,25.1,
1544,1,SBT2050,2,3,,2,18224,4.15004,0.05166,2645.215,356.324,25.1,
1544,1,SBT2050,2,3,,2,18492,4.14984,0.04844,2648.949,356.324,25.1,
1544,1,SBT2050,2,3,,2,18760,4.14972,0.046268,2652.461,356.324,25.1,
1544,1,SBT2050,2,3,,2,19028,4.14992,0.043297,2655.787,356.324,25.1,
1544,1,SBT2050,2,3,,2,19296,4.1502,0.04079,2658.935,356.324,25.1,
1544,1,SBT2050,2,3,,2,19564,4.14971,0.03937,2661.912,356.324,25.1,
1544,1,SBT2050,2,3,,2,19832,4.15015,0.036627,2664.718,356.324,25.1,
1544,1,SBT2050,2,3,,2,20100,4.15003,0.035183,2667.377,356.324,25,
1544,1,SBT2050,2,3,,2,20368,4.15002,0.032902,2669.909,356.324,25.1,
1544,1,SBT2050,2,3,,2,20636,4.15002,0.031188,2672.297,356.324,25.1,
1544,1,SBT2050,2,3,,2,20904,4.14992,0.029927,2674.566,356.324,25.1,
1544,1,SBT2050,2,3,,2,21172,4.15018,0.027696,2676.713,356.324,25.1,
1544,1,SBT2050,2,3,,2,21440,4.14992,0.026807,2678.758,356.324,25,
1544,1,SBT2050,2,3,,2,21708,4.14989,0.025838,2680.703,356.324,25.1,
1544,1,SBT2050,2,3,,2,21976,4.14995,0.024189,2682.566,356.324,25,
1544,1,SBT2050,2,3,,2,22244,4.14996,0.023347,2684.335,356.324,25,
1544,1,SBT2050,2,3,,2,22512,4.14964,0.022081,2686.024,356.324,25,
1544,1,SBT2050,2,3,,2,22780,4.1502,0.020965,2687.629,356.324,25.1,
1544,1,SBT2050,2,3,,2,23048,4.15003,0.020146,2689.162,356.324,25,
1544,1,SBT2050,2,3,,2,23316,4.15015,0.01941,2690.635,356.324,25,
1544,1,SBT2050,2,3,,2,23584,4.14997,0.018297,2692.044,356.324,25,
1544,1,SBT2050,2,3,,2,23852,4.149746,0.018102,2693.4,356.324,25,
1544,1,SBT2050,2,3,,2,24120,4.15002,0.017053,2694.686,356.324,25,
1544,1,SBT2050,2,3,,2,24388,4.14995,0.016042,2695.93,356.324,25,
1544,1,SBT2050,2,3,,2,24656,4.15018,0.01541,2697.121,356.324,25,
1544,1,SBT2050,2,3,,2,24924,4.15022,0.015386,2698.262,356.324,25,
1544,1,SBT2050,2,3,,2,25192,4.15008,0.014639,2699.362,356.324,25,
1544,1,SBT2050,2,3,,2,25460,4.15004,0.013822,2700.417,356.324,25,
1544,1,SBT2050,2,3,,2,25728,4.150068,0.013442,2701.434,356.324,25,
1544,1,SBT2050,2,3,,2,25996,4.14998,0.01319,2702.419,356.324,25,
1544,1,SBT2050,2,3,,2,26264,4.150056,0.012287,2703.37,356.324,25,
1544,1,SBT2050,2,3,,2,26532,4.15015,0.01177,2704.283,356.324,25,
1544,1,SBT2050,2,3,,2,26800,4.14988,0.012349,2705.167,356.324,25,
1544,1,SBT2050,2,3,,2,27068,4.14996,0.011499,2706.019,356.324,25,
1544,1,SBT2050,2,3,,2,27336,4.150056,0.011049,2706.833,356.324,25,
1544,1,SBT2050,2,3,,3,27603,4.14835,0,2707.488,356.324,25,
1544,1,SBT2050,2,3,,3,27871,4.14655,0,2707.488,356.324,25,
1544,1,SBT2050,2,3,,3,28139,4.14563,0,2707.488,356.324,25,
1544,1,SBT2050,2,3,,3,28407,4.14526,0,2707.488,356.324,25,
1544,1,SBT2050,2,3,,3,28675,4.14444,0,2707.488,356.324,25,
1544,1,SBT2050,2,3,,3,28943,4.144272,0,2707.488,356.324,25,
1544,1,SBT2050,2,3,,3,29211,4.143976,0,2707.488,356.324,25,
1544,1,SBT2050,2,3,,4,29478,3.73355,-2.9359,2707.488,457.049,26.8,
1544,1,SBT2050,2,3,,4,29746,3.69154,-2.9359,2707.488,675.615,29.2,
1544,1,SBT2050,2,3,,4,30014,3.63203,-2.9362,2707.488,894.18,29.7,
1544,1,SBT2050,2,3,,4,30282,3.5589,-2.9356,2707.488,1112.746,29.7,
1544,1,SBT2050,2,3,,4,30550,3.48183,-2.9364,2707.488,1331.312,29.8,
1544,1,SBT2050,2,3,,4,30818,3.40271,-2.9362,2707.488,1549.878,29.9,
1544,1,SBT2050,2,3,,4,31086,3.32281,-2.9362,2707.488,1768.444,30.1,
1544,1,SBT2050,2,3,,4,31354,3.23559,-2.9362,2707.488,1987.01,30.5,
1544,1,SBT2050,2,3,,4,31622,3.126675,-2.9359,2707.488,2205.576,31.2,
1544,1,SBT2050,2,3,,4,31890,2.96696,-2.9359,2707.488,2424.142,32.4,
1544,1,SBT2050,2,3,,4,32158,2.644782,-2.9362,2707.488,2642.708,34.7,
1544,1,SBT2050,2,3,,4,32426,2.49969,-1.2488,2707.488,2798.279,35.2,
1544,1,SBT2050,2,3,,4,32694,2.49995,-0.5872,2707.488,2861.803,31.3,
1544,1,SBT2050,2,3,,4,32962,2.499965,-0.37986,2707.488,2896.434,28.7,
1544,1,SBT2050,2,3,,4,33230,2.4998,-0.29451,2707.488,2921.153,27.5,
1544,1,SBT2050,2,3,,4,33498,2.499977,-0.24531,2707.488,2941.118,26.8,
1544,1,SBT2050,2,3,,4,33766,2.50007,-0.21045,2707.488,2958.015,26.4,
1544,1,SBT2050,2,3,,4,34034,2.49993,-0.18232,2707.488,2972.6,26.2,
1544,1,SBT2050,2,3,,4,34302,2.49985,-0.15758,2707.488,2985.253,26,
1544,1,SBT2050,2,3,,4,34570,2.49989,-0.13466,2707.488,2996.126,25.8,
1544,1,SBT2050,2,3,,4,34838,2.50022,-0.11455,2707.488,3005.378,25.7,
1544,1,SBT2050,2,3,,4,35106,2.5001,-0.09746,2707.488,3013.254,25.6,
1544,1,SBT2050,2,3,,4,35374,2.49989,-0.08253,2707.488,3019.942,25.5,
1544,1,SBT2050,2,3,,4,35642,2.4998,-0.06994,2707.488,3025.612,25.5,
1544,1,SBT2050,2,3,,4,35910,2.50001,-0.05977,2707.488,3030.434,25.4,
1544,1,SBT2050,2,3,,4,36178,2.49993,-0.05189,2707.488,3034.588,25.3,
1544,1,SBT2050,2,3,,4,36446,2.5,-0.04496,2707.488,3038.192,25.3,
1544,1,SBT2050,2,3,,4,36714,2.49993,-0.039034,2707.488,3041.318,25.3,
1544,1,SBT2050,2,3,,4,36982,2.49991,-0.033647,2707.488,3044.024,25.2,
1544,1,SBT2050,2,3,,4,37250,2.49995,-0.029164,2707.488,3046.357,25.2,
1544,1,SBT2050,2,3,,4,37518,2.49981,-0.024762,2707.488,3048.357,25.2,
1544,1,SBT2050,2,3,,4,37786,2.50004,-0.02149,2707.488,3050.072,25.2,
1544,1,SBT2050,2,3,,4,38054,2.50002,-0.018617,2707.488,3051.558,25.1,
1544,1,SBT2050,2,3,,4,38322,2.50008,-0.016433,2707.488,3052.857,25.1,
1544,1,SBT2050,2,3,,4,38590,2.50004,-0.014432,2707.488,3053.999,25.1,
1544,1,SBT2050,2,3,,4,38858,2.499989,-0.012788,2707.488,3055.012,25.1,
1544,1,SBT2050,2,3,,4,39126,2.5001,-0.011268,2707.488,3055.912,25.1,
1544,1,SBT2050,2,3,,5,39393,2.50867,0,2707.488,3056.69,25.1,
1544,1,SBT2050,2,3,,5,39661,2.62444,0,2707.488,3056.69,25.1,
1544,1,SBT2050,2,3,,5,39929,2.68694,0,2707.488,3056.69,25.1,
1544,1,SBT2050,2,3,,5,40197,2.72486,0,2707.488,3056.69,25.1,
1544,1,SBT2050,2,3,,5,40465,2.74957,0,2707.488,3056.69,25,
1544,1,SBT2050,2,3,,5,40733,2.76743,0,2707.488,3056.69,25,
1544,1,SBT2050,2,3,,5,41001,2.780421,0,2707.488,3056.69,25,
1544,1,SBT2050,2,3,,5,41185.662,2.787274,-9.9E-05,2707.488,3056.69,,