File: ORRG/Test1576.csv
Request Year:,2018,,,,,,,,,,,,
Test:,1576,,,,,,,,,,,,
Test Description:,,,,,,,,,,,,,
TestRegime Name:,Dchg_1C,,,,,,,,,,,,
TestRegime Suffix:,SHP_LC,,,,,,,,,,,,
TestRegime CellSize:,18650,,,,,,,,,,,,
TestRegime Version:,1,,,,,,,,,,,,
Number Of Cells:,1,,,,,,,,,,,,
LotID:,,,,,,,,,,,,,
Lot Description:,,,,,,,,,,,,,
Date Made:,1/21/2003 12:00 AM,,,,,,,,,,,,
Origin:,Other,,,,,,,,,,,,
Requestor:,Admin,,,,,,,,,,,,
Product ID:,Default product,,,,,,,,,,,,
Storage Temp:,R.T./AMB,,,,,,,,,,,,
Storage Delay:,0 days,,,,,,,,,,,,
Test Temp:,R.T./AMB,,,,,,,,,,,,
Start Time:,4/27/2018 9:06 PM,,,,,,,,,,,,
End Time:,4/27/2018 9:55 PM,,,,,,,,,,,,
Operator Instructions:,,,,,,,,,,,,,
Test,Cell,Rack,Shelf,Position,Cell ID,Step,Total Time (Seconds),Voltage (V),Current (A),Charge Capacity (mAh),Discharge Capacity (mAh),TC1 (Â°C),
1576,1,SBT2050,2,3,,0,1,4.111568,0,0,0,32.1,
1576,1,SBT2050,2,3,,0,19,4.10778,0,0,0,32.1,
1576,1,SBT2050,2,3,,0,37,4.1038,0,0,0,32.1,
1576,1,SBT2050,2,3,,0,55,4.10016,0,0,0,32.1,
1576,1,SBT2050,2,3,,1,73,3.88908,-2.6999,0,9.749,32.1,
1576,1,SBT2050,2,3,,1,91,3.86021,-2.6999,0,23.248,32.2,
1576,1,SBT2050,2,3,,1,109,3.84287,-2.6999,0,36.748,32.2,
1576,1,SBT2050,2,3,,1,127,3.82986,-2.7005,0,50.248,32.2,
1576,1,SBT2050,2,3,,1,145,3.81972,-2.7001,0,63.748,32.2,
1576,1,SBT2050,2,3,,1,163,3.810664,-2.7002,0,77.248,32.1,
1576,1,SBT2050,2,3,,1,181,3.802792,-2.7001,0,90.747,32,
1576,1,SBT2050,2,3,,1,199,3.79537,-2.7003,0,104.247,31.8,
1576,1,SBT2050,2,3,,1,217,3.78842,-2.6998,0,117.747,31.7,
1576,1,SBT2050,2,3,,1,235,3.78175,-2.6999,0,131.247,31.6,
1576,1,SBT2050,2,3,,1,253,3.77531,-2.6997,0,144.746,31.5,
1576,1,SBT2050,2,3,,1,271,3.76865,-2.7,0,158.246,31.3,
1576,1,SBT2050,2,3,,1,289,3.76228,-2.7003,0,171.746,31.3,
1576,1,SBT2050,2,3,,1,307,3.75611,-2.7001,0,185.245,31.1,
1576,1,SBT2050,2,3,,1,325,3.749968,-2.6999,0,198.745,31,
1576,1,SBT2050,2,3,,1,343,3.74393,-2.7003,0,212.245,30.9,
1576,1,SBT2050,2,3,,1,361,3.738,-2.7001,0,225.745,30.7,
1576,1,SBT2050,2,3,,1,379,3.731868,-2.7,0,239.245,30.6,
1576,1,SBT2050,2,3,,1,397,3.72577,-2.6998,0,252.744,30.6,
1576,1,SBT2050,2,3,,1,415,3.719812,-2.6996,0,266.244,30.5,
1576,1,SBT2050,2,3,,1,433,3.71414,-2.7002,0,279.744,30.3,
1576,1,SBT2050,2,3,,1,451,3.70829,-2.6997,0,293.243,30.3,
1576,1,SBT2050,2,3,,1,469,3.70273,-2.6995,0,306.743,30.2,
1576,1,SBT2050,2,3,,1,487,3.69697,-2.6997,0,320.243,30.1,
1576,1,SBT2050,2,3,,1,505,3.69132,-2.7004,0,333.742,30,
1576,1,SBT2050,2,3,,1,523,3.68584,-2.6998,0,347.242,29.9,
1576,1,SBT2050,2,3,,1,541,3.68021,-2.6998,0,360.742,29.9,
1576,1,SBT2050,2,3,,1,559,3.674434,-2.6998,0,374.242,29.8,
1576,1,SBT2050,2,3,,1,577,3.668678,-2.7002,0,387.741,29.7,
1576,1,SBT2050,2,3,,1,595,3.663228,-2.7001,0,401.241,29.6,
1576,1,SBT2050,2,3,,1,613,3.65803,-2.6998,0,414.741,29.6,
1576,1,SBT2050,2,3,,1,631,3.652756,-2.7,0,428.24,29.5,
1576,1,SBT2050,2,3,,1,649,3.647238,-2.6998,0,441.74,29.5,
1576,1,SBT2050,2,3,,1,667,3.64196,-2.7,0,455.24,29.4,
1576,1,SBT2050,2,3,,1,685,3.63657,-2.6998,0,468.74,29.4,
1576,1,SBT2050,2,3,,1,703,3.63118,-2.6995,0,482.239,29.3,
1576,1,SBT2050,2,3,,1,721,3.62626,-2.7003,0,495.739,29.3,
1576,1,SBT2050,2,3,,1,739,3.62089,-2.7001,0,509.239,29.3,
1576,1,SBT2050,2,3,,1,757,3.61568,-2.7001,0,522.739,29.3,
1576,1,SBT2050,2,3,,1,775,3.61095,-2.6998,0,536.238,29.3,
1576,1,SBT2050,2,3,,1,793,3.60539,-2.6998,0,549.738,29.2,
1576,1,SBT2050,2,3,,1,811,3.600288,-2.6999,0,563.238,29.2,
1576,1,SBT2050,2,3,,1,829,3.59539,-2.6997,0,576.737,29.2,
1576,1,SBT2050,2,3,,1,847,3.59008,-2.6999,0,590.237,29.2,
1576,1,SBT2050,2,3,,1,865,3.58518,-2.7003,0,603.737,29.2,
1576,1,SBT2050,2,3,,1,883,3.579948,-2.7001,0,617.237,29.1,
1576,1,SBT2050,2,3,,1,901,3.575,-2.6996,0,630.736,29.1,
1576,1,SBT2050,2,3,,1,919,3.5702,-2.6998,0,644.236,29.1,
1576,1,SBT2050,2,3,,1,937,3.5652,-2.7001,0,657.736,29.1,
1576,1,SBT2050,2,3,,1,955,3.55994,-2.7002,0,671.235,29.1,
1576,1,SBT2050,2,3,,1,973,3.5545,-2.6997,0,684.735,29.1,
1576,1,SBT2050,2,3,,1,991,3.549548,-2.6996,0,698.235,29.1,
1576,1,SBT2050,2,3,,1,1009,3.54454,-2.7,0,711.735,29,
1576,1,SBT2050,2,3,,1,1027,3.53916,-2.6999,0,725.234,29.1,
1576,1,SBT2050,2,3,,1,1045,3.53415,-2.6995,0,738.734,29,
1576,1,SBT2050,2,3,,1,1063,3.52941,-2.7001,0,752.234,29.1,
1576,1,SBT2050,2,3,,1,1081,3.52427,-2.7,0,765.733,29.1,
1576,1,SBT2050,2,3,,1,1099,3.51897,-2.6999,0,779.233,29.1,
1576,1,SBT2050,2,3,,1,1117,3.51404,-2.6998,0,792.733,29.1,
1576,1,SBT2050,2,3,,1,1135,3.50868,-2.7,0,806.233,29.1,
1576,1,SBT2050,2,3,,1,1153,3.503656,-2.6998,0,819.733,29.1,
1576,1,SBT2050,2,3,,1,1171,3.49856,-2.7001,0,833.232,29.1,
1576,1,SBT2050,2,3,,1,1189,3.49361,-2.7,0,846.732,29.1,
1576,1,SBT2050,2,3,,1,1207,3.48858,-2.7,0,860.232,29.1,
1576,1,SBT2050,2,3,,1,1225,3.48327,-2.6997,0,873.731,29.1,
1576,1,SBT2050,2,3,,1,1243,3.47821,-2.6998,0,887.231,29.1,
1576,1,SBT2050,2,3,,1,1261,3.47329,-2.6997,0,900.731,29.1,
1576,1,SBT2050,2,3,,1,1279,3.46849,-2.7,0,914.231,29.1,
1576,1,SBT2050,2,3,,1,1297,3.46335,-2.7003,0,927.73,29.1,
1576,1,SBT2050,2,3,,1,1315,3.45819,-2.7,0,941.23,29.1,
1576,1,SBT2050,2,3,,1,1333,3.45297,-2.7003,0,954.73,29.1,
1576,1,SBT2050,2,3,,1,1351,3.44821,-2.7,0,968.229,29.1,
1576,1,SBT2050,2,3,,1,1369,3.44333,-2.7001,0,981.729,29.1,
1576,1,SBT2050,2,3,,1,1387,3.43868,-2.6998,0,995.229,29.1,
1576,1,SBT2050,2,3,,1,1405,3.43358,-2.6999,0,1008.729,29.1,
1576,1,SBT2050,2,3,,1,1423,3.4286,-2.6995,0,1022.228,29.1,
1576,1,SBT2050,2,3,,1,1441,3.42352,-2.6997,0,1035.728,29.1,
1576,1,SBT2050,2,3,,1,1459,3.4188,-2.6998,0,1049.228,29.1,
1576,1,SBT2050,2,3,,1,1477,3.41396,-2.6998,0,1062.727,29.1,
1576,1,SBT2050,2,3,,1,1495,3.40915,-2.6999,0,1076.227,29.1,
1576,1,SBT2050,2,3,,1,1513,3.40421,-2.7,0,1089.727,29.1,
1576,1,SBT2050,2,3,,1,1531,3.39927,-2.6995,0,1103.227,29.1,
1576,1,SBT2050,2,3,,1,1549,3.39424,-2.7003,0,1116.726,29.1,
1576,1,SBT2050,2,3,,1,1567,3.389334,-2.7001,0,1130.226,29.1,
1576,1,SBT2050,2,3,,1,1585,3.38448,-2.7005,0,1143.726,29.1,
1576,1,SBT2050,2,3,,1,1603,3.37969,-2.6996,0,1157.225,29.2,
1576,1,SBT2050,2,3,,1,1621,3.37477,-2.7001,0,1170.725,29.1,
1576,1,SBT2050,2,3,,1,1639,3.369824,-2.7002,0,1184.225,29.1,
1576,1,SBT2050,2,3,,1,1657,3.365,-2.7001,0,1197.724,29.1,
1576,1,SBT2050,2,3,,1,1675,3.35994,-2.7001,0,1211.224,29.1,
1576,1,SBT2050,2,3,,1,1693,3.354731,-2.7001,0,1224.724,29.2,
1576,1,SBT2050,2,3,,1,1711,3.3497,-2.6998,0,1238.224,29.2,
1576,1,SBT2050,2,3,,1,1729,3.344865,-2.6998,0,1251.723,29.2,
1576,1,SBT2050,2,3,,1,1747,3.33992,-2.6997,0,1265.223,29.2,
1576,1,SBT2050,2,3,,1,1765,3.33502,-2.6997,0,1278.723,29.3,
1576,1,SBT2050,2,3,,1,1783,3.3299,-2.7001,0,1292.222,29.3,
1576,1,SBT2050,2,3,,1,1801,3.32481,-2.7003,0,1305.722,29.3,
1576,1,SBT2050,2,3,,1,1819,3.31983,-2.6997,0,1319.222,29.3,
1576,1,SBT2050,2,3,,1,1837,3.31456,-2.7001,0,1332.721,29.3,
1576,1,SBT2050,2,3,,1,1855,3.30933,-2.6997,0,1346.221,29.3,
1576,1,SBT2050,2,3,,1,1873,3.30439,-2.6999,0,1359.721,29.4,
1576,1,SBT2050,2,3,,1,1891,3.29894,-2.6997,0,1373.221,29.4,
1576,1,SBT2050,2,3,,1,1909,3.29369,-2.7,0,1386.72,29.4,
1576,1,SBT2050,2,3,,1,1927,3.2885,-2.6998,0,1400.22,29.4,
1576,1,SBT2050,2,3,,1,1945,3.28295,-2.7001,0,1413.72,29.4,
1576,1,SBT2050,2,3,,1,1963,3.27733,-2.6998,0,1427.22,29.4,
1576,1,SBT2050,2,3,,1,1981,3.27168,-2.6997,0,1440.719,29.5,
1576,1,SBT2050,2,3,,1,1999,3.266267,-2.7006,0,1454.219,29.5,
1576,1,SBT2050,2,3,,1,2017,3.26036,-2.7,0,1467.719,29.5,
1576,1,SBT2050,2,3,,1,2035,3.25478,-2.6997,0,1481.218,29.5,
1576,1,SBT2050,2,3,,1,2053,3.24876,-2.7001,0,1494.718,29.6,
1576,1,SBT2050,2,3,,1,2071,3.24296,-2.6997,0,1508.218,29.6,
1576,1,SBT2050,2,3,,1,2089,3.23708,-2.6995,0,1521.717,29.6,
1576,1,SBT2050,2,3,,1,2107,3.23104,-2.7,0,1535.217,29.7,
1576,1,SBT2050,2,3,,1,2125,3.224844,-2.6997,0,1548.717,29.7,
1576,1,SBT2050,2,3,,1,2143,3.21837,-2.7003,0,1562.217,29.8,
1576,1,SBT2050,2,3,,1,2161,3.21201,-2.6997,0,1575.716,29.8,
1576,1,SBT2050,2,3,,1,2179,3.20543,-2.6999,0,1589.216,29.9,
1576,1,SBT2050,2,3,,1,2197,3.19869,-2.6998,0,1602.716,29.9,
1576,1,SBT2050,2,3,,1,2215,3.191845,-2.7,0,1616.216,29.9,
1576,1,SBT2050,2,3,,1,2233,3.184864,-2.6998,0,1629.715,30,
1576,1,SBT2050,2,3,,1,2251,3.17752,-2.7,0,1643.215,30,
1576,1,SBT2050,2,3,,1,2269,3.17024,-2.7001,0,1656.715,30,
1576,1,SBT2050,2,3,,1,2287,3.16261,-2.6997,0,1670.214,30.1,
1576,1,SBT2050,2,3,,1,2305,3.15481,-2.6997,0,1683.714,30.1,
1576,1,SBT2050,2,3,,1,2323,3.14711,-2.7001,0,1697.214,30.2,
1576,1,SBT2050,2,3,,1,2341,3.13903,-2.7001,0,1710.714,30.2,
1576,1,SBT2050,2,3,,1,2359,3.13105,-2.6997,0,1724.213,30.3,
1576,1,SBT2050,2,3,,1,2377,3.12246,-2.7001,0,1737.713,30.3,
1576,1,SBT2050,2,3,,1,2395,3.11378,-2.6999,0,1751.213,30.4,
1576,1,SBT2050,2,3,,1,2413,3.10469,-2.6998,0,1764.713,30.5,
1576,1,SBT2050,2,3,,1,2431,3.09518,-2.6998,0,1778.212,30.5,
1576,1,SBT2050,2,3,,1,2449,3.08575,-2.7001,0,1791.712,30.5,
1576,1,SBT2050,2,3,,1,2467,3.07583,-2.6998,0,1805.212,30.6,
1576,1,SBT2050,2,3,,1,2485,3.06571,-2.7003,0,1818.712,30.7,
1576,1,SBT2050,2,3,,1,2503,3.05492,-2.6998,0,1832.211,30.8,
1576,1,SBT2050,2,3,,1,2521,3.04434,-2.7,0,1845.711,30.9,
1576,1,SBT2050,2,3,,1,2539,3.033299,-2.7003,0,1859.211,30.9,
1576,1,SBT2050,2,3,,1,2557,3.02125,-2.7003,0,1872.71,31,
1576,1,SBT2050,2,3,,1,2575,3.00916,-2.6998,0,1886.21,31.1,
1576,1,SBT2050,2,3,,1,2593,2.99675,-2.7,0,1899.71,31.2,
1576,1,SBT2050,2,3,,1,2611,2.98346,-2.7,0,1913.21,31.3,
1576,1,SBT2050,2,3,,1,2629,2.96988,-2.6994,0,1926.709,31.3,
1576,1,SBT2050,2,3,,1,2647,2.95571,-2.6998,0,1940.209,31.4,
1576,1,SBT2050,2,3,,1,2665,2.940426,-2.7001,0,1953.709,31.5,
1576,1,SBT2050,2,3,,1,2683,2.92452,-2.7001,0,1967.208,31.6,
1576,1,SBT2050,2,3,,1,2701,2.90749,-2.6997,0,1980.708,31.7,
1576,1,SBT2050,2,3,,1,2719,2.88937,-2.6997,0,1994.208,31.9,
1576,1,SBT2050,2,3,,1,2737,2.87008,-2.7,0,2007.708,32,
1576,1,SBT2050,2,3,,1,2755,2.84905,-2.7,0,2021.207,32.2,
1576,1,SBT2050,2,3,,1,2773,2.82617,-2.6996,0,2034.707,32.3,
1576,1,SBT2050,2,3,,1,2791,2.80112,-2.6994,0,2048.207,32.4,
1576,1,SBT2050,2,3,,1,2809,2.77324,-2.6997,0,2061.707,32.6,
1576,1,SBT2050,2,3,,1,2827,2.74285,-2.7005,0,2075.206,32.8,
1576,1,SBT2050,2,3,,1,2845,2.708853,-2.6998,0,2088.706,33,
1576,1,SBT2050,2,3,,1,2863,2.671121,-2.7001,0,2102.206,33.1,
1576,1,SBT2050,2,3,,1,2881,2.62875,-2.7001,0,2115.705,33.3,
1576,1,SBT2050,2,3,,1,2899,2.5802,-2.6998,0,2129.205,33.6,
1576,1,SBT2050,2,3,,1,2917,2.52375,-2.7003,0,2142.705,33.9,
1576,1,SBT2050,2,3,,2,2934,3.124107,0,0,2147.829,34.1,
1576,1,SBT2050,2,3,,2,2952,3.21687,0,0,2147.829,33.7,
1576,1,SBT2050,2,3,,2,2970,3.25486,0,0,2147.829,33.2,
1576,1,SBT2050,2,3,,2,2983.831,3.27385,-0.000101,0,2147.829,,