File: ORRG/Test1469.csv
Request Year:,2018,,,,,,,,,,,,
Test:,1469,,,,,,,,,,,,
Test Description:,,,,,,,,,,,,,
TestRegime Name:,Aging_Performance,,,,,,,,,,,,
TestRegime Suffix:,SHP_LC,,,,,,,,,,,,
TestRegime CellSize:,18650,,,,,,,,,,,,
TestRegime Version:,1,,,,,,,,,,,,
Number Of Cells:,1,,,,,,,,,,,,
LotID:,,,,,,,,,,,,,
Lot Description:,,,,,,,,,,,,,
Date Made:,1/21/2003 12:00 AM,,,,,,,,,,,,
Origin:,Other,,,,,,,,,,,,
Requestor:,Admin,,,,,,,,,,,,
Product ID:,Default product,,,,,,,,,,,,
Storage Temp:,R.T./AMB,,,,,,,,,,,,
Storage Delay:,0 days,,,,,,,,,,,,
Test Temp:,R.T./AMB,,,,,,,,,,,,
Start Time:,4/7/2018 6:06 PM,,,,,,,,,,,,
End Time:,4/8/2018 12:51 AM,,,,,,,,,,,,
Operator Instructions:,,,,,,,,,,,,,
Test,Cell,Rack,Shelf,Position,Cell ID,Step,Total Time (Seconds),Voltage (V),Current (A),Charge Capacity (mAh),Discharge Capacity (mAh),TC1 (Â°C),
1469,1,SBT2050,2,3,,0,1,3.328833,0,0,0,24.9,
1469,1,SBT2050,2,3,,0,159,3.32917,0,0,0,25.1,
1469,1,SBT2050,2,3,,1,317,2.51049,-2.9361,0,13.863,25.4,
1469,1,SBT2050,2,3,,1,475,2.499911,-0.9857,0,73.201,28.6,
1469,1,SBT2050,2,3,,1,633,2.4999,-0.6449,0,108.156,28.9,
1469,1,SBT2050,2,3,,1,791,2.4999,-0.44764,0,131.803,28.5,
1469,1,SBT2050,2,3,,1,949,2.4999,-0.32755,0,148.593,27.8,
1469,1,SBT2050,2,3,,1,1107,2.500066,-0.24857,0,161.132,27.2,
1469,1,SBT2050,2,3,,1,1265,2.49974,-0.19235,0,170.754,26.8,
1469,1,SBT2050,2,3,,1,1423,2.499768,-0.14574,0,178.164,26.4,
1469,1,SBT2050,2,3,,1,1581,2.4998,-0.10258,0,183.602,26.1,
1469,1,SBT2050,2,3,,1,1739,2.49984,-0.06378,0,187.238,25.8,
1469,1,SBT2050,2,3,,1,1897,2.50004,-0.035762,0,189.36,25.6,
1469,1,SBT2050,2,3,,1,2055,2.4999,-0.022958,0,190.604,25.5,
1469,1,SBT2050,2,3,,1,2213,2.500078,-0.017895,0,191.489,25.4,
1469,1,SBT2050,2,3,,1,2371,2.49995,-0.015615,0,192.222,25.4,
1469,1,SBT2050,2,3,,1,2529,2.500078,-0.014169,0,192.872,25.3,
1469,1,SBT2050,2,3,,1,2687,2.50003,-0.013042,0,193.467,25.3,
1469,1,SBT2050,2,3,,1,2845,2.499935,-0.012163,0,194.019,25.3,
1469,1,SBT2050,2,3,,1,3003,2.49996,-0.011255,0,194.534,25.3,
1469,1,SBT2050,2,3,,1,3161,2.49983,-0.010446,0,195.014,25.3,
1469,1,SBT2050,2,3,,2,3318,3.338935,2.9361,33.27,195.349,25.4,
1469,1,SBT2050,2,3,,2,3476,3.588354,2.9357,162.126,195.349,26.9,
1469,1,SBT2050,2,3,,2,3634,3.6197,2.9359,290.982,195.349,28.4,
1469,1,SBT2050,2,3,,2,3792,3.65012,2.9359,419.838,195.349,29.1,
1469,1,SBT2050,2,3,,2,3950,3.67382,2.9359,548.694,195.349,29.3,
1469,1,SBT2050,2,3,,2,4108,3.6968,2.9359,677.55,195.349,29.3,
1469,1,SBT2050,2,3,,2,4266,3.72346,2.9362,806.405,195.349,29.3,
1469,1,SBT2050,2,3,,2,4424,3.7505,2.9359,935.261,195.349,29.3,
1469,1,SBT2050,2,3,,2,4582,3.778316,2.9357,1064.117,195.349,29.3,
1469,1,SBT2050,2,3,,2,4740,3.80873,2.9362,1192.973,195.349,29.4,
1469,1,SBT2050,2,3,,2,4898,3.842544,2.9359,1321.828,195.349,29.4,
1469,1,SBT2050,2,3,,2,5056,3.88163,2.9361,1450.684,195.349,29.6,
1469,1,SBT2050,2,3,,2,5214,3.92566,2.9358,1579.539,195.349,29.7,
1469,1,SBT2050,2,3,,2,5372,3.97143,2.936,1708.395,195.349,29.8,
1469,1,SBT2050,2,3,,2,5530,4.018276,2.9359,1837.251,195.349,29.9,
1469,1,SBT2050,2,3,,2,5688,4.06451,2.9361,1966.107,195.349,30,
1469,1,SBT2050,2,3,,2,5846,4.1108,2.9364,2094.962,195.349,30.1,
1469,1,SBT2050,2,3,,2,6004,4.15012,2.7871,2223.322,195.349,30.2,
1469,1,SBT2050,2,3,,2,6162,4.15011,2.067,2329.069,195.349,29.7,
1469,1,SBT2050,2,3,,2,6320,4.15016,1.5402,2407.592,195.349,28.8,
1469,1,SBT2050,2,3,,2,6478,4.1501,1.1654,2466.443,195.349,28,
1469,1,SBT2050,2,3,,2,6636,4.14998,0.9164,2511.772,195.349,27.3,
1469,1,SBT2050,2,3,,2,6794,4.15009,0.7441,2547.974,195.349,26.8,
1469,1,SBT2050,2,3,,2,6952,4.15016,0.6224,2577.821,195.349,26.4,
1469,1,SBT2050,2,3,,2,7110,4.150208,0.5338,2603.08,195.349,26.1,
1469,1,SBT2050,2,3,,2,7268,4.149874,0.4651,2624.927,195.349,25.9,
1469,1,SBT2050,2,3,,2,7426,4.149838,0.41152,2644.126,195.349,25.8,
1469,1,SBT2050,2,3,,2,7584,4.149886,0.36739,2661.191,195.349,25.7,
1469,1,SBT2050,2,3,,2,7742,4.15015,0.33008,2676.462,195.349,25.6,
1469,1,SBT2050,2,3,,2,7900,4.15001,0.29735,2690.198,195.349,25.5,
1469,1,SBT2050,2,3,,2,8058,4.15008,0.26736,2702.553,195.349,25.5,
1469,1,SBT2050,2,3,,2,8216,4.14998,0.24225,2713.723,195.349,25.4,
1469,1,SBT2050,2,3,,2,8374,4.150196,0.21787,2723.81,195.349,25.4,
1469,1,SBT2050,2,3,,2,8532,4.15003,0.19826,2732.942,195.349,25.3,
1469,1,SBT2050,2,3,,2,8690,4.14999,0.17919,2741.227,195.349,25.3,
1469,1,SBT2050,2,3,,2,8848,4.14993,0.16296,2748.725,195.349,25.3,
1469,1,SBT2050,2,3,,2,9006,4.14985,0.14793,2755.543,195.349,25.3,
1469,1,SBT2050,2,3,,2,9164,4.14991,0.13489,2761.74,195.349,25.3,
1469,1,SBT2050,2,3,,2,9322,4.15003,0.12274,2767.404,195.349,25.3,
1469,1,SBT2050,2,3,,2,9480,4.14997,0.11202,2772.557,195.349,25.3,
1469,1,SBT2050,2,3,,2,9638,4.14996,0.10193,2777.249,195.349,25.3,
1469,1,SBT2050,2,3,,2,9796,4.14975,0.09321,2781.526,195.349,25.3,
1469,1,SBT2050,2,3,,2,9954,4.14997,0.08546,2785.444,195.349,25.3,
1469,1,SBT2050,2,3,,2,10112,4.149838,0.0776,2789.016,195.349,25.3,
1469,1,SBT2050,2,3,,2,10270,4.1501,0.0718,2792.296,195.349,25.3,
1469,1,SBT2050,2,3,,2,10428,4.14981,0.06589,2795.317,195.349,25.2,
1469,1,SBT2050,2,3,,2,10586,4.1501,0.06062,2798.087,195.349,25.3,
1469,1,SBT2050,2,3,,2,10744,4.14999,0.05618,2800.645,195.349,25.2,
1469,1,SBT2050,2,3,,2,10902,4.149862,0.05178,2802.998,195.349,25.2,
1469,1,SBT2050,2,3,,2,11060,4.1498,0.0485,2805.183,195.349,25.2,
1469,1,SBT2050,2,3,,2,11218,4.1501,0.04416,2807.2,195.349,25.2,
1469,1,SBT2050,2,3,,2,11376,4.149838,0.041753,2809.058,195.349,25.2,
1469,1,SBT2050,2,3,,2,11534,4.150184,0.037374,2810.797,195.349,25.2,
1469,1,SBT2050,2,3,,2,11692,4.15005,0.0354,2812.401,195.349,25.3,
1469,1,SBT2050,2,3,,2,11850,4.14995,0.032559,2813.881,195.349,25.2,
1469,1,SBT2050,2,3,,2,12008,4.14993,0.030862,2815.26,195.349,25.2,
1469,1,SBT2050,2,3,,2,12166,4.14992,0.028257,2816.566,195.349,25.2,
1469,1,SBT2050,2,3,,2,12324,4.15011,0.026459,2817.783,195.349,25.2,
1469,1,SBT2050,2,3,,2,12482,4.14991,0.024989,2818.928,195.349,25.2,
1469,1,SBT2050,2,3,,2,12640,4.14991,0.02348,2819.996,195.349,25.2,
1469,1,SBT2050,2,3,,2,12798,4.14981,0.021826,2820.98,195.349,25.2,
1469,1,SBT2050,2,3,,2,12956,4.14998,0.021038,2821.919,195.349,25.2,
1469,1,SBT2050,2,3,,2,13114,4.14985,0.019909,2822.794,195.349,25.2,
1469,1,SBT2050,2,3,,2,13272,4.15006,0.018399,2823.617,195.349,25.2,
1469,1,SBT2050,2,3,,2,13430,4.14998,0.016628,2824.382,195.349,25.2,
1469,1,SBT2050,2,3,,2,13588,4.150196,0.015981,2825.12,195.349,25.2,
1469,1,SBT2050,2,3,,2,13746,4.14998,0.014586,2825.806,195.349,25.2,
1469,1,SBT2050,2,3,,2,13904,4.14998,0.014047,2826.442,195.349,25.2,
1469,1,SBT2050,2,3,,2,14062,4.15016,0.013525,2827.059,195.349,25.2,
1469,1,SBT2050,2,3,,2,14220,4.14983,0.012757,2827.638,195.349,25.2,
1469,1,SBT2050,2,3,,2,14378,4.15016,0.01243,2828.188,195.349,25.2,
1469,1,SBT2050,2,3,,2,14536,4.15009,0.011122,2828.701,195.349,25.2,
1469,1,SBT2050,2,3,,2,14694,4.15002,0.011332,2829.203,195.349,25.2,
1469,1,SBT2050,2,3,,3,14851,4.1488,0,2829.329,195.349,25.2,
1469,1,SBT2050,2,3,,3,15009,4.14844,0,2829.329,195.349,25.2,
1469,1,SBT2050,2,3,,3,15167,4.147966,0,2829.329,195.349,25.2,
1469,1,SBT2050,2,3,,3,15325,4.1479,0,2829.329,195.349,25.2,
1469,1,SBT2050,2,3,,3,15483,4.14744,0,2829.329,195.349,25.2,
1469,1,SBT2050,2,3,,3,15641,4.14728,0,2829.329,195.349,25.2,
1469,1,SBT2050,2,3,,3,15799,4.14707,0,2829.329,195.349,25.2,
1469,1,SBT2050,2,3,,3,15957,4.14669,0,2829.329,195.349,25.2,
1469,1,SBT2050,2,3,,3,16115,4.14708,0,2829.329,195.349,25.2,
1469,1,SBT2050,2,3,,3,16273,4.14677,0,2829.329,195.349,25.2,
1469,1,SBT2050,2,3,,3,16431,4.14711,0,2829.329,195.349,25.2,
1469,1,SBT2050,2,3,,4,16588,3.8876,-2.9363,2829.329,238.465,25.7,
1469,1,SBT2050,2,3,,4,16746,3.85282,-2.9361,2829.329,367.321,27.3,
1469,1,SBT2050,2,3,,4,16904,3.8257,-2.9361,2829.329,496.177,28.1,
1469,1,SBT2050,2,3,,4,17062,3.78873,-2.9354,2829.329,625.032,28.4,
1469,1,SBT2050,2,3,,4,17220,3.74816,-2.9359,2829.329,753.888,28.5,
1469,1,SBT2050,2,3,,4,17378,3.70855,-2.9359,2829.329,882.743,28.4,
1469,1,SBT2050,2,3,,4,17536,3.66829,-2.936,2829.329,1011.599,28.4,
1469,1,SBT2050,2,3,,4,17694,3.62558,-2.9359,2829.329,1140.454,28.5,
1469,1,SBT2050,2,3,,4,17852,3.58015,-2.9359,2829.329,1269.31,28.6,
1469,1,SBT2050,2,3,,4,18010,3.53469,-2.9358,2829.329,1398.165,28.6,
1469,1,SBT2050,2,3,,4,18168,3.491516,-2.9359,2829.329,1527.02,28.7,
1469,1,SBT2050,2,3,,4,18326,3.45224,-2.9358,2829.329,1655.876,28.8,
1469,1,SBT2050,2,3,,4,18484,3.41616,-2.9361,2829.329,1784.731,28.9,
1469,1,SBT2050,2,3,,4,18642,3.38125,-2.9357,2829.329,1913.586,29,
1469,1,SBT2050,2,3,,4,18800,3.34503,-2.9356,2829.329,2042.441,29.2,
1469,1,SBT2050,2,3,,4,18958,3.30334,-2.9361,2829.329,2171.297,29.3,
1469,1,SBT2050,2,3,,4,19116,3.25121,-2.9361,2829.329,2300.152,29.6,
1469,1,SBT2050,2,3,,4,19274,3.18096,-2.9358,2829.329,2429.007,30,
1469,1,SBT2050,2,3,,4,19432,3.07598,-2.9355,2829.329,2557.862,30.6,
1469,1,SBT2050,2,3,,4,19590,2.899003,-2.9354,2829.329,2686.718,31.9,
1469,1,SBT2050,2,3,,4,19748,2.5174,-2.9366,2829.329,2815.573,34.2,
1469,1,SBT2050,2,3,,4,19906,2.49978,-1.472,2829.329,2907.189,35.3,
1469,1,SBT2050,2,3,,4,20064,2.499728,-0.7687,2829.329,2954.479,33.3,
1469,1,SBT2050,2,3,,4,20222,2.49991,-0.43506,2829.329,2980.027,30.9,
1469,1,SBT2050,2,3,,4,20380,2.49981,-0.27022,2829.329,2995.12,29,
1469,1,SBT2050,2,3,,4,20538,2.49976,-0.17205,2829.329,3004.685,27.7,
1469,1,SBT2050,2,3,,4,20696,2.4998,-0.1046,2829.329,3010.664,26.8,
1469,1,SBT2050,2,3,,4,20854,2.5,-0.05583,2829.329,3014.114,26.2,
1469,1,SBT2050,2,3,,4,21012,2.49997,-0.030312,2829.329,3015.913,25.9,
1469,1,SBT2050,2,3,,4,21170,2.50017,-0.021633,2829.329,3017.017,25.6,
1469,1,SBT2050,2,3,,4,21328,2.50007,-0.017929,2829.329,3017.872,25.5,
1469,1,SBT2050,2,3,,4,21486,2.500193,-0.01613,2829.329,3018.613,25.4,
1469,1,SBT2050,2,3,,4,21644,2.49991,-0.014598,2829.329,3019.284,25.4,
1469,1,SBT2050,2,3,,4,21802,2.49999,-0.013643,2829.329,3019.904,25.3,
1469,1,SBT2050,2,3,,4,21960,2.49989,-0.012688,2829.329,3020.481,25.3,
1469,1,SBT2050,2,3,,4,22118,2.49997,-0.011999,2829.329,3021.02,25.3,
1469,1,SBT2050,2,3,,4,22276,2.5,-0.011264,2829.329,3021.527,25.3,
1469,1,SBT2050,2,3,,4,22434,2.49981,-0.010544,2829.329,3022.004,25.3,
1469,1,SBT2050,2,3,,5,22591,2.546098,0,2829.329,3022.265,25.3,
1469,1,SBT2050,2,3,,5,22749,2.61386,0,2829.329,3022.265,25.2,
1469,1,SBT2050,2,3,,5,22907,2.660086,0,2829.329,3022.265,25.2,
1469,1,SBT2050,2,3,,5,23065,2.69315,0,2829.329,3022.265,25.2,
1469,1,SBT2050,2,3,,5,23223,2.71768,0,2829.329,3022.265,25.2,
1469,1,SBT2050,2,3,,5,23381,2.737226,0,2829.329,3022.265,25.2,
1469,1,SBT2050,2,3,,5,23539,2.75263,0,2829.329,3022.265,25.2,
1469,1,SBT2050,2,3,,5,23697,2.76533,0,2829.329,3022.265,25.2,
1469,1,SBT2050,2,3,,5,23855,2.77574,0,2829.329,3022.265,25.2,
1469,1,SBT2050,2,3,,5,24013,2.78432,0,2829.329,3022.265,25.2,
1469,1,SBT2050,2,3,,5,24171,2.79199,0,2829.329,3022.265,25.2,
1469,1,SBT2050,2,3,,5,24324.21,2.79846,-0.0001,2829.329,3022.265,,