File: ORRG/Test1495.csv
Request Year:,2018,,,,,,,,,,,,
Test:,1495,,,,,,,,,,,,
Test Description:,,,,,,,,,,,,,
TestRegime Name:,Aging_Performance,,,,,,,,,,,,
TestRegime Suffix:,SHP_LC,,,,,,,,,,,,
TestRegime CellSize:,18650,,,,,,,,,,,,
TestRegime Version:,1,,,,,,,,,,,,
Number Of Cells:,1,,,,,,,,,,,,
LotID:,,,,,,,,,,,,,
Lot Description:,,,,,,,,,,,,,
Date Made:,1/21/2003 12:00 AM,,,,,,,,,,,,
Origin:,Other,,,,,,,,,,,,
Requestor:,Admin,,,,,,,,,,,,
Product ID:,Default product,,,,,,,,,,,,
Storage Temp:,R.T./AMB,,,,,,,,,,,,
Storage Delay:,0 days,,,,,,,,,,,,
Test Temp:,R.T./AMB,,,,,,,,,,,,
Start Time:,4/11/2018 11:34 AM,,,,,,,,,,,,
End Time:,4/11/2018 7:30 PM,,,,,,,,,,,,
Operator Instructions:,,,,,,,,,,,,,
Test,Cell,Rack,Shelf,Position,Cell ID,Step,Total Time (Seconds),Voltage (V),Current (A),Charge Capacity (mAh),Discharge Capacity (mAh),TC1 (Â°C),
1495,1,SBT2050,2,3,,0,1,3.34749,0,0,0,24.9,
1495,1,SBT2050,2,3,,0,184,3.34711,0,0,0,25.1,
1495,1,SBT2050,2,3,,1,367,2.499833,-1.5839,0,41.876,27.3,
1495,1,SBT2050,2,3,,1,550,2.49979,-0.942,0,103.216,29.3,
1495,1,SBT2050,2,3,,1,733,2.49988,-0.6308,0,142.399,29.2,
1495,1,SBT2050,2,3,,1,916,2.5,-0.44139,0,169.303,28.5,
1495,1,SBT2050,2,3,,1,1099,2.499821,-0.32247,0,188.51,27.8,
1495,1,SBT2050,2,3,,1,1282,2.49996,-0.24438,0,202.778,27.2,
1495,1,SBT2050,2,3,,1,1465,2.49987,-0.19281,0,213.809,26.7,
1495,1,SBT2050,2,3,,1,1648,2.49992,-0.15609,0,222.632,26.4,
1495,1,SBT2050,2,3,,1,1831,2.50007,-0.12717,0,229.807,26.1,
1495,1,SBT2050,2,3,,1,2014,2.50002,-0.10328,0,235.652,25.9,
1495,1,SBT2050,2,3,,1,2197,2.499821,-0.08249,0,240.36,25.8,
1495,1,SBT2050,2,3,,1,2380,2.50004,-0.06429,0,244.083,25.6,
1495,1,SBT2050,2,3,,1,2563,2.49986,-0.04809,0,246.937,25.5,
1495,1,SBT2050,2,3,,1,2746,2.499988,-0.03429,0,249.021,25.5,
1495,1,SBT2050,2,3,,1,2929,2.50002,-0.023793,0,250.475,25.4,
1495,1,SBT2050,2,3,,1,3112,2.50005,-0.017494,0,251.506,25.4,
1495,1,SBT2050,2,3,,1,3295,2.49989,-0.013815,0,252.295,25.3,
1495,1,SBT2050,2,3,,1,3478,2.49987,-0.011511,0,252.938,25.4,
1495,1,SBT2050,2,3,,1,3661,2.49987,-0.010176,0,253.49,25.3,
1495,1,SBT2050,2,3,,2,3843,3.61357,2.936,145.491,253.5,27,
1495,1,SBT2050,2,3,,2,4026,3.65788,2.9357,294.736,253.5,28.8,
1495,1,SBT2050,2,3,,2,4209,3.69184,2.936,443.981,253.5,29.5,
1495,1,SBT2050,2,3,,2,4392,3.71849,2.9365,593.225,253.5,29.8,
1495,1,SBT2050,2,3,,2,4575,3.75038,2.9361,742.469,253.5,29.7,
1495,1,SBT2050,2,3,,2,4758,3.78317,2.9358,891.714,253.5,29.7,
1495,1,SBT2050,2,3,,2,4941,3.81971,2.936,1040.959,253.5,29.7,
1495,1,SBT2050,2,3,,2,5124,3.86166,2.9357,1190.203,253.5,29.8,
1495,1,SBT2050,2,3,,2,5307,3.90922,2.9362,1339.447,253.5,30,
1495,1,SBT2050,2,3,,2,5490,3.96002,2.9362,1488.691,253.5,30.2,
1495,1,SBT2050,2,3,,2,5673,4.01224,2.9363,1637.935,253.5,30.3,
1495,1,SBT2050,2,3,,2,5856,4.0651,2.9361,1787.179,253.5,30.5,
1495,1,SBT2050,2,3,,2,6039,4.118224,2.9363,1936.423,253.5,30.6,
1495,1,SBT2050,2,3,,2,6222,4.14998,2.5898,2081.932,253.5,30.6,
1495,1,SBT2050,2,3,,2,6405,4.150078,1.9321,2196.15,253.5,29.9,
1495,1,SBT2050,2,3,,2,6588,4.15021,1.4486,2281.36,253.5,28.9,
1495,1,SBT2050,2,3,,2,6771,4.15014,1.1143,2345.965,253.5,28,
1495,1,SBT2050,2,3,,2,6954,4.14996,0.8838,2396.441,253.5,27.3,
1495,1,SBT2050,2,3,,2,7137,4.15005,0.7208,2437.011,253.5,26.8,
1495,1,SBT2050,2,3,,2,7320,4.15016,0.6016,2470.512,253.5,26.4,
1495,1,SBT2050,2,3,,2,7503,4.15007,0.5115,2498.691,253.5,26.1,
1495,1,SBT2050,2,3,,2,7686,4.14991,0.43943,2522.801,253.5,26,
1495,1,SBT2050,2,3,,2,7869,4.14998,0.38513,2543.705,253.5,25.8,
1495,1,SBT2050,2,3,,2,8052,4.14994,0.33985,2562.101,253.5,25.8,
1495,1,SBT2050,2,3,,2,8235,4.150102,0.30362,2578.428,253.5,25.7,
1495,1,SBT2050,2,3,,2,8418,4.14996,0.27424,2593.145,253.5,25.6,
1495,1,SBT2050,2,3,,2,8601,4.15022,0.25116,2606.507,253.5,25.5,
1495,1,SBT2050,2,3,,2,8784,4.14989,0.23012,2618.74,253.5,25.5,
1495,1,SBT2050,2,3,,2,8967,4.14986,0.21131,2629.93,253.5,25.5,
1495,1,SBT2050,2,3,,2,9150,4.15027,0.19358,2640.231,253.5,25.5,
1495,1,SBT2050,2,3,,2,9333,4.150126,0.17798,2649.677,253.5,25.4,
1495,1,SBT2050,2,3,,2,9516,4.15025,0.16278,2658.366,253.5,25.4,
1495,1,SBT2050,2,3,,2,9699,4.14984,0.15151,2666.363,253.5,25.4,
1495,1,SBT2050,2,3,,2,9882,4.14994,0.13884,2673.75,253.5,25.3,
1495,1,SBT2050,2,3,,2,10065,4.150078,0.13103,2680.596,253.5,25.3,
1495,1,SBT2050,2,3,,2,10248,4.15003,0.11997,2686.965,253.5,25.3,
1495,1,SBT2050,2,3,,2,10431,4.14997,0.11131,2692.842,253.5,25.3,
1495,1,SBT2050,2,3,,2,10614,4.14999,0.10304,2698.294,253.5,25.4,
1495,1,SBT2050,2,3,,2,10797,4.15002,0.09635,2703.367,253.5,25.3,
1495,1,SBT2050,2,3,,2,10980,4.14991,0.08931,2708.08,253.5,25.3,
1495,1,SBT2050,2,3,,2,11163,4.15005,0.08364,2712.475,253.5,25.3,
1495,1,SBT2050,2,3,,2,11346,4.14995,0.07801,2716.574,253.5,25.3,
1495,1,SBT2050,2,3,,2,11529,4.15003,0.07217,2720.399,253.5,25.3,
1495,1,SBT2050,2,3,,2,11712,4.14991,0.06868,2723.976,253.5,25.3,
1495,1,SBT2050,2,3,,2,11895,4.14982,0.06352,2727.333,253.5,25.3,
1495,1,SBT2050,2,3,,2,12078,4.14992,0.05933,2730.47,253.5,25.3,
1495,1,SBT2050,2,3,,2,12261,4.14982,0.05694,2733.425,253.5,25.3,
1495,1,SBT2050,2,3,,2,12444,4.14982,0.0524,2736.201,253.5,25.3,
1495,1,SBT2050,2,3,,2,12627,4.1499,0.0501,2738.805,253.5,25.3,
1495,1,SBT2050,2,3,,2,12810,4.14985,0.046545,2741.262,253.5,25.2,
1495,1,SBT2050,2,3,,2,12993,4.15004,0.044843,2743.577,253.5,25.3,
1495,1,SBT2050,2,3,,2,13176,4.15002,0.041565,2745.765,253.5,25.3,
1495,1,SBT2050,2,3,,2,13359,4.15017,0.03913,2747.827,253.5,25.3,
1495,1,SBT2050,2,3,,2,13542,4.1499,0.03624,2749.764,253.5,25.3,
1495,1,SBT2050,2,3,,2,13725,4.14991,0.035141,2751.587,253.5,25.3,
1495,1,SBT2050,2,3,,2,13908,4.15007,0.033177,2753.314,253.5,25.2,
1495,1,SBT2050,2,3,,2,14091,4.149804,0.031649,2754.956,253.5,25.2,
1495,1,SBT2050,2,3,,2,14274,4.15003,0.029163,2756.495,253.5,25.2,
1495,1,SBT2050,2,3,,2,14457,4.14999,0.028095,2757.96,253.5,25.2,
1495,1,SBT2050,2,3,,2,14640,4.150114,0.026071,2759.338,253.5,25.2,
1495,1,SBT2050,2,3,,2,14823,4.15003,0.024936,2760.642,253.5,25.2,
1495,1,SBT2050,2,3,,2,15006,4.1499,0.023258,2761.886,253.5,25.2,
1495,1,SBT2050,2,3,,2,15189,4.15017,0.022934,2763.073,253.5,25.2,
1495,1,SBT2050,2,3,,2,15372,4.14984,0.021344,2764.197,253.5,25.2,
1495,1,SBT2050,2,3,,2,15555,4.14992,0.020407,2765.256,253.5,25.2,
1495,1,SBT2050,2,3,,2,15738,4.14988,0.019154,2766.268,253.5,25.2,
1495,1,SBT2050,2,3,,2,15921,4.14997,0.019346,2767.25,253.5,25.2,
1495,1,SBT2050,2,3,,2,16104,4.15023,0.017379,2768.169,253.5,25.2,
1495,1,SBT2050,2,3,,2,16287,4.14996,0.016741,2769.052,253.5,25.3,
1495,1,SBT2050,2,3,,2,16470,4.15035,0.016251,2769.888,253.5,25.3,
1495,1,SBT2050,2,3,,2,16653,4.15022,0.015819,2770.688,253.5,25.2,
1495,1,SBT2050,2,3,,2,16836,4.15005,0.015386,2771.452,253.5,25.3,
1495,1,SBT2050,2,3,,2,17019,4.150126,0.014175,2772.189,253.5,25.3,
1495,1,SBT2050,2,3,,2,17202,4.1499,0.013147,2772.889,253.5,25.2,
1495,1,SBT2050,2,3,,2,17385,4.15002,0.012286,2773.55,253.5,25.2,
1495,1,SBT2050,2,3,,2,17568,4.1502,0.012459,2774.181,253.5,25.3,
1495,1,SBT2050,2,3,,2,17751,4.14966,0.012059,2774.793,253.5,25.3,
1495,1,SBT2050,2,3,,2,17934,4.14995,0.011209,2775.379,253.5,25.3,
1495,1,SBT2050,2,3,,2,18117,4.14986,0.010566,2775.939,253.5,25.3,
1495,1,SBT2050,2,3,,3,18299,4.14782,0,2776.046,253.5,25.2,
1495,1,SBT2050,2,3,,3,18482,4.147356,0,2776.046,253.5,25.2,
1495,1,SBT2050,2,3,,3,18665,4.14691,0,2776.046,253.5,25.2,
1495,1,SBT2050,2,3,,3,18848,4.14656,0,2776.046,253.5,25.2,
1495,1,SBT2050,2,3,,3,19031,4.1463,0,2776.046,253.5,25.2,
1495,1,SBT2050,2,3,,3,19214,4.146324,0,2776.046,253.5,25.2,
1495,1,SBT2050,2,3,,3,19397,4.14605,0,2776.046,253.5,25.2,
1495,1,SBT2050,2,3,,3,19580,4.145636,0,2776.046,253.5,25.2,
1495,1,SBT2050,2,3,,3,19763,4.14557,0,2776.046,253.5,25.2,
1495,1,SBT2050,2,3,,3,19946,4.14549,0,2776.046,253.5,25.2,
1495,1,SBT2050,2,3,,4,20128,3.8051,-2.9358,2776.046,395.125,27.3,
1495,1,SBT2050,2,3,,4,20311,3.77952,-2.9355,2776.046,544.37,28.6,
1495,1,SBT2050,2,3,,4,20494,3.741056,-2.9358,2776.046,693.614,29,
1495,1,SBT2050,2,3,,4,20677,3.69537,-2.9362,2776.046,842.859,29,
1495,1,SBT2050,2,3,,4,20860,3.646656,-2.9359,2776.046,992.103,29,
1495,1,SBT2050,2,3,,4,21043,3.59523,-2.936,2776.046,1141.348,29.1,
1495,1,SBT2050,2,3,,4,21226,3.54139,-2.9357,2776.046,1290.592,29.1,
1495,1,SBT2050,2,3,,4,21409,3.48794,-2.9356,2776.046,1439.837,29.2,
1495,1,SBT2050,2,3,,4,21592,3.43689,-2.9362,2776.046,1589.081,29.3,
1495,1,SBT2050,2,3,,4,21775,3.38973,-2.9359,2776.046,1738.326,29.4,
1495,1,SBT2050,2,3,,4,21958,3.342122,-2.936,2776.046,1887.57,29.6,
1495,1,SBT2050,2,3,,4,22141,3.29059,-2.9361,2776.046,2036.815,29.8,
1495,1,SBT2050,2,3,,4,22324,3.227799,-2.9358,2776.046,2186.059,30.2,
1495,1,SBT2050,2,3,,4,22507,3.144642,-2.9361,2776.046,2335.304,30.7,
1495,1,SBT2050,2,3,,4,22690,3.02526,-2.936,2776.046,2484.548,31.6,
1495,1,SBT2050,2,3,,4,22873,2.8391,-2.9357,2776.046,2633.793,33.1,
1495,1,SBT2050,2,3,,4,23056,2.49987,-2.5122,2776.046,2781.223,35.7,
1495,1,SBT2050,2,3,,4,23239,2.499803,-1.286,2776.046,2873.969,35.4,
1495,1,SBT2050,2,3,,4,23422,2.499803,-0.7017,2776.046,2922.509,32.9,
1495,1,SBT2050,2,3,,4,23605,2.49973,-0.43015,2776.046,2950.475,30.4,
1495,1,SBT2050,2,3,,4,23788,2.4999,-0.30231,2776.046,2968.711,28.7,
1495,1,SBT2050,2,3,,4,23971,2.49976,-0.23143,2776.046,2982.145,27.6,
1495,1,SBT2050,2,3,,4,24154,2.4999,-0.18253,2776.046,2992.618,27,
1495,1,SBT2050,2,3,,4,24337,2.49985,-0.14357,2776.046,3000.878,26.5,
1495,1,SBT2050,2,3,,4,24520,2.49997,-0.11085,2776.046,3007.326,26.2,
1495,1,SBT2050,2,3,,4,24703,2.49987,-0.08353,2776.046,3012.245,26,
1495,1,SBT2050,2,3,,4,24886,2.50005,-0.06262,2776.046,3015.927,25.8,
1495,1,SBT2050,2,3,,4,25069,2.49993,-0.04887,2776.046,3018.729,25.7,
1495,1,SBT2050,2,3,,4,25252,2.49998,-0.039486,2776.046,3020.96,25.6,
1495,1,SBT2050,2,3,,4,25435,2.49987,-0.032685,2776.046,3022.789,25.5,
1495,1,SBT2050,2,3,,4,25618,2.50005,-0.027428,2776.046,3024.313,25.5,
1495,1,SBT2050,2,3,,4,25801,2.49989,-0.023392,2776.046,3025.601,25.5,
1495,1,SBT2050,2,3,,4,25984,2.50007,-0.020074,2776.046,3026.706,25.4,
1495,1,SBT2050,2,3,,4,26167,2.49981,-0.017282,2776.046,3027.655,25.4,
1495,1,SBT2050,2,3,,4,26350,2.50001,-0.014653,2776.046,3028.466,25.4,
1495,1,SBT2050,2,3,,4,26533,2.50014,-0.012469,2776.046,3029.149,25.4,
1495,1,SBT2050,2,3,,4,26716,2.50009,-0.010621,2776.046,3029.727,25.4,
1495,1,SBT2050,2,3,,5,26898,2.57694,0,2776.046,3029.843,25.4,
1495,1,SBT2050,2,3,,5,27081,2.636159,0,2776.046,3029.843,25.3,
1495,1,SBT2050,2,3,,5,27264,2.67481,0,2776.046,3029.843,25.3,
1495,1,SBT2050,2,3,,5,27447,2.7027,0,2776.046,3029.843,25.3,
1495,1,SBT2050,2,3,,5,27630,2.72371,0,2776.046,3029.843,25.3,
1495,1,SBT2050,2,3,,5,27813,2.740183,0,2776.046,3029.843,25.2,
1495,1,SBT2050,2,3,,5,27996,2.75333,0,2776.046,3029.843,25.3,
1495,1,SBT2050,2,3,,5,28179,2.76452,0,2776.046,3029.843,25.2,
1495,1,SBT2050,2,3,,5,28362,2.77349,0,2776.046,3029.843,25.2,
1495,1,SBT2050,2,3,,5,28545,2.7813,0,2776.046,3029.843,25.2,
1495,1,SBT2050,2,3,,5,28556.48,2.78184,-0.0001,2776.046,3029.843,,