File: ORRG/Test1553.csv
Request Year:,2018,,,,,,,,,,,,
Test:,1553,,,,,,,,,,,,
Test Description:,,,,,,,,,,,,,
TestRegime Name:,Dchg_1C,,,,,,,,,,,,
TestRegime Suffix:,SHP_LC,,,,,,,,,,,,
TestRegime CellSize:,18650,,,,,,,,,,,,
TestRegime Version:,1,,,,,,,,,,,,
Number Of Cells:,1,,,,,,,,,,,,
LotID:,,,,,,,,,,,,,
Lot Description:,,,,,,,,,,,,,
Date Made:,1/21/2003 12:00 AM,,,,,,,,,,,,
Origin:,Other,,,,,,,,,,,,
Requestor:,Admin,,,,,,,,,,,,
Product ID:,Default product,,,,,,,,,,,,
Storage Temp:,R.T./AMB,,,,,,,,,,,,
Storage Delay:,0 days,,,,,,,,,,,,
Test Temp:,R.T./AMB,,,,,,,,,,,,
Start Time:,4/25/2018 11:00 AM,,,,,,,,,,,,
End Time:,4/25/2018 11:51 AM,,,,,,,,,,,,
Operator Instructions:,,,,,,,,,,,,,
Test,Cell,Rack,Shelf,Position,Cell ID,Step,Total Time (Seconds),Voltage (V),Current (A),Charge Capacity (mAh),Discharge Capacity (mAh),TC1 (Â°C),
1553,1,SBT2050,2,3,,0,1,4.18255,0,0,0,25.9,
1553,1,SBT2050,2,3,,0,19,4.18082,0,0,0,25.9,
1553,1,SBT2050,2,3,,0,37,4.17955,0,0,0,25.8,
1553,1,SBT2050,2,3,,0,55,4.178098,0,0,0,25.8,
1553,1,SBT2050,2,3,,1,73,3.89905,-2.6999,0,9.749,25.8,
1553,1,SBT2050,2,3,,1,91,3.86622,-2.6995,0,23.248,26,
1553,1,SBT2050,2,3,,1,109,3.84593,-2.7001,0,36.748,26.2,
1553,1,SBT2050,2,3,,1,127,3.830954,-2.7001,0,50.248,26.5,
1553,1,SBT2050,2,3,,1,145,3.8188,-2.7001,0,63.747,26.8,
1553,1,SBT2050,2,3,,1,163,3.80827,-2.6998,0,77.247,27,
1553,1,SBT2050,2,3,,1,181,3.799076,-2.7002,0,90.747,27.2,
1553,1,SBT2050,2,3,,1,199,3.790618,-2.7004,0,104.247,27.4,
1553,1,SBT2050,2,3,,1,217,3.78275,-2.7,0,117.746,27.6,
1553,1,SBT2050,2,3,,1,235,3.77548,-2.6999,0,131.246,27.7,
1553,1,SBT2050,2,3,,1,253,3.76912,-2.6999,0,144.746,27.8,
1553,1,SBT2050,2,3,,1,271,3.76317,-2.6994,0,158.245,27.9,
1553,1,SBT2050,2,3,,1,289,3.757606,-2.6999,0,171.745,28,
1553,1,SBT2050,2,3,,1,307,3.75242,-2.7001,0,185.245,28.2,
1553,1,SBT2050,2,3,,1,325,3.74737,-2.6996,0,198.745,28.3,
1553,1,SBT2050,2,3,,1,343,3.74252,-2.7001,0,212.244,28.3,
1553,1,SBT2050,2,3,,1,361,3.73774,-2.7002,0,225.744,28.4,
1553,1,SBT2050,2,3,,1,379,3.73298,-2.6997,0,239.244,28.5,
1553,1,SBT2050,2,3,,1,397,3.72863,-2.7003,0,252.743,28.5,
1553,1,SBT2050,2,3,,1,415,3.72355,-2.7,0,266.243,28.6,
1553,1,SBT2050,2,3,,1,433,3.71887,-2.7,0,279.743,28.6,
1553,1,SBT2050,2,3,,1,451,3.71432,-2.6996,0,293.243,28.7,
1553,1,SBT2050,2,3,,1,469,3.70974,-2.6999,0,306.742,28.7,
1553,1,SBT2050,2,3,,1,487,3.70511,-2.7003,0,320.242,28.8,
1553,1,SBT2050,2,3,,1,505,3.700332,-2.7002,0,333.742,28.8,
1553,1,SBT2050,2,3,,1,523,3.69586,-2.7,0,347.242,28.8,
1553,1,SBT2050,2,3,,1,541,3.69102,-2.6997,0,360.742,28.9,
1553,1,SBT2050,2,3,,1,559,3.68662,-2.7004,0,374.241,28.9,
1553,1,SBT2050,2,3,,1,577,3.68193,-2.6998,0,387.741,28.9,
1553,1,SBT2050,2,3,,1,595,3.67735,-2.7002,0,401.241,28.9,
1553,1,SBT2050,2,3,,1,613,3.67277,-2.6996,0,414.74,29,
1553,1,SBT2050,2,3,,1,631,3.66826,-2.7,0,428.24,29,
1553,1,SBT2050,2,3,,1,649,3.66351,-2.7005,0,441.74,29,
1553,1,SBT2050,2,3,,1,667,3.65855,-2.7002,0,455.24,29,
1553,1,SBT2050,2,3,,1,685,3.65378,-2.7002,0,468.739,29,
1553,1,SBT2050,2,3,,1,703,3.64913,-2.7,0,482.239,29,
1553,1,SBT2050,2,3,,1,721,3.6443,-2.6999,0,495.739,29,
1553,1,SBT2050,2,3,,1,739,3.63958,-2.6999,0,509.239,29,
1553,1,SBT2050,2,3,,1,757,3.63472,-2.6996,0,522.738,29,
1553,1,SBT2050,2,3,,1,775,3.63005,-2.6998,0,536.238,28.9,
1553,1,SBT2050,2,3,,1,793,3.62503,-2.7,0,549.738,29,
1553,1,SBT2050,2,3,,1,811,3.62049,-2.7,0,563.237,29,
1553,1,SBT2050,2,3,,1,829,3.61543,-2.6999,0,576.737,29,
1553,1,SBT2050,2,3,,1,847,3.61084,-2.7001,0,590.237,29,
1553,1,SBT2050,2,3,,1,865,3.60586,-2.7002,0,603.737,29,
1553,1,SBT2050,2,3,,1,883,3.60103,-2.6999,0,617.236,29,
1553,1,SBT2050,2,3,,1,901,3.59623,-2.7,0,630.736,29,
1553,1,SBT2050,2,3,,1,919,3.5916,-2.7004,0,644.236,29,
1553,1,SBT2050,2,3,,1,937,3.58655,-2.6999,0,657.735,29,
1553,1,SBT2050,2,3,,1,955,3.58154,-2.7004,0,671.235,29,
1553,1,SBT2050,2,3,,1,973,3.576576,-2.6999,0,684.735,29,
1553,1,SBT2050,2,3,,1,991,3.57177,-2.7,0,698.234,29.1,
1553,1,SBT2050,2,3,,1,1009,3.566802,-2.7003,0,711.734,29.1,
1553,1,SBT2050,2,3,,1,1027,3.56195,-2.7002,0,725.234,29.1,
1553,1,SBT2050,2,3,,1,1045,3.55702,-2.6999,0,738.734,29.1,
1553,1,SBT2050,2,3,,1,1063,3.55197,-2.7004,0,752.234,29.1,
1553,1,SBT2050,2,3,,1,1081,3.54686,-2.7,0,765.733,29.1,
1553,1,SBT2050,2,3,,1,1099,3.5418,-2.7,0,779.233,29.1,
1553,1,SBT2050,2,3,,1,1117,3.53704,-2.7,0,792.733,29.1,
1553,1,SBT2050,2,3,,1,1135,3.53204,-2.7003,0,806.233,29.1,
1553,1,SBT2050,2,3,,1,1153,3.52702,-2.7002,0,819.732,29.1,
1553,1,SBT2050,2,3,,1,1171,3.52199,-2.7001,0,833.232,29.1,
1553,1,SBT2050,2,3,,1,1189,3.51684,-2.7002,0,846.732,29.1,
1553,1,SBT2050,2,3,,1,1207,3.51173,-2.6996,0,860.232,29.1,
1553,1,SBT2050,2,3,,1,1225,3.50681,-2.7003,0,873.732,29.1,
1553,1,SBT2050,2,3,,1,1243,3.50195,-2.6999,0,887.231,29.1,
1553,1,SBT2050,2,3,,1,1261,3.49668,-2.6996,0,900.731,29.1,
1553,1,SBT2050,2,3,,1,1279,3.49156,-2.7,0,914.231,29.2,
1553,1,SBT2050,2,3,,1,1297,3.48647,-2.7,0,927.73,29.1,
1553,1,SBT2050,2,3,,1,1315,3.48152,-2.6996,0,941.23,29.2,
1553,1,SBT2050,2,3,,1,1333,3.476498,-2.6999,0,954.73,29.1,
1553,1,SBT2050,2,3,,1,1351,3.47133,-2.6998,0,968.23,29.2,
1553,1,SBT2050,2,3,,1,1369,3.46629,-2.7001,0,981.729,29.2,
1553,1,SBT2050,2,3,,1,1387,3.46148,-2.6998,0,995.229,29.2,
1553,1,SBT2050,2,3,,1,1405,3.457048,-2.7001,0,1008.729,29.2,
1553,1,SBT2050,2,3,,1,1423,3.45215,-2.6999,0,1022.228,29.2,
1553,1,SBT2050,2,3,,1,1441,3.44729,-2.6998,0,1035.728,29.2,
1553,1,SBT2050,2,3,,1,1459,3.44222,-2.7,0,1049.228,29.2,
1553,1,SBT2050,2,3,,1,1477,3.43731,-2.6998,0,1062.728,29.2,
1553,1,SBT2050,2,3,,1,1495,3.43253,-2.7002,0,1076.227,29.2,
1553,1,SBT2050,2,3,,1,1513,3.42755,-2.6996,0,1089.727,29.2,
1553,1,SBT2050,2,3,,1,1531,3.42271,-2.6998,0,1103.227,29.2,
1553,1,SBT2050,2,3,,1,1549,3.41797,-2.7,0,1116.727,29.2,
1553,1,SBT2050,2,3,,1,1567,3.41292,-2.7002,0,1130.226,29.2,
1553,1,SBT2050,2,3,,1,1585,3.40818,-2.7005,0,1143.726,29.2,
1553,1,SBT2050,2,3,,1,1603,3.403194,-2.7002,0,1157.226,29.2,
1553,1,SBT2050,2,3,,1,1621,3.39845,-2.7005,0,1170.725,29.2,
1553,1,SBT2050,2,3,,1,1639,3.39344,-2.7,0,1184.225,29.2,
1553,1,SBT2050,2,3,,1,1657,3.38861,-2.6998,0,1197.725,29.2,
1553,1,SBT2050,2,3,,1,1675,3.38378,-2.6996,0,1211.225,29.3,
1553,1,SBT2050,2,3,,1,1693,3.37881,-2.6997,0,1224.724,29.3,
1553,1,SBT2050,2,3,,1,1711,3.37439,-2.7,0,1238.224,29.3,
1553,1,SBT2050,2,3,,1,1729,3.36952,-2.7,0,1251.724,29.3,
1553,1,SBT2050,2,3,,1,1747,3.36452,-2.7,0,1265.224,29.3,
1553,1,SBT2050,2,3,,1,1765,3.35984,-2.6998,0,1278.724,29.3,
1553,1,SBT2050,2,3,,1,1783,3.35506,-2.7,0,1292.223,29.3,
1553,1,SBT2050,2,3,,1,1801,3.34977,-2.7003,0,1305.723,29.3,
1553,1,SBT2050,2,3,,1,1819,3.34484,-2.7,0,1319.223,29.3,
1553,1,SBT2050,2,3,,1,1837,3.33998,-2.7002,0,1332.723,29.4,
1553,1,SBT2050,2,3,,1,1855,3.335151,-2.7,0,1346.222,29.4,
1553,1,SBT2050,2,3,,1,1873,3.33002,-2.7,0,1359.722,29.4,
1553,1,SBT2050,2,3,,1,1891,3.3247,-2.6999,0,1373.222,29.4,
1553,1,SBT2050,2,3,,1,1909,3.31981,-2.6997,0,1386.722,29.4,
1553,1,SBT2050,2,3,,1,1927,3.31467,-2.7001,0,1400.221,29.4,
1553,1,SBT2050,2,3,,1,1945,3.3093,-2.6995,0,1413.721,29.4,
1553,1,SBT2050,2,3,,1,1963,3.3041,-2.6999,0,1427.221,29.5,
1553,1,SBT2050,2,3,,1,1981,3.29868,-2.6999,0,1440.721,29.5,
1553,1,SBT2050,2,3,,1,1999,3.29326,-2.6999,0,1454.22,29.5,
1553,1,SBT2050,2,3,,1,2017,3.28808,-2.7001,0,1467.72,29.6,
1553,1,SBT2050,2,3,,1,2035,3.28238,-2.6996,0,1481.22,29.6,
1553,1,SBT2050,2,3,,1,2053,3.27702,-2.7001,0,1494.719,29.6,
1553,1,SBT2050,2,3,,1,2071,3.27144,-2.7,0,1508.219,29.6,
1553,1,SBT2050,2,3,,1,2089,3.265918,-2.6996,0,1521.719,29.7,
1553,1,SBT2050,2,3,,1,2107,3.26027,-2.6997,0,1535.218,29.7,
1553,1,SBT2050,2,3,,1,2125,3.25443,-2.6998,0,1548.718,29.7,
1553,1,SBT2050,2,3,,1,2143,3.248326,-2.7001,0,1562.218,29.7,
1553,1,SBT2050,2,3,,1,2161,3.24236,-2.6998,0,1575.718,29.8,
1553,1,SBT2050,2,3,,1,2179,3.23619,-2.6998,0,1589.217,29.8,
1553,1,SBT2050,2,3,,1,2197,3.22982,-2.7002,0,1602.717,29.8,
1553,1,SBT2050,2,3,,1,2215,3.22397,-2.6997,0,1616.217,29.8,
1553,1,SBT2050,2,3,,1,2233,3.21728,-2.6997,0,1629.717,29.9,
1553,1,SBT2050,2,3,,1,2251,3.21078,-2.6999,0,1643.216,29.9,
1553,1,SBT2050,2,3,,1,2269,3.20398,-2.7001,0,1656.716,30,
1553,1,SBT2050,2,3,,1,2287,3.19745,-2.6998,0,1670.216,30,
1553,1,SBT2050,2,3,,1,2305,3.19033,-2.7003,0,1683.715,30.1,
1553,1,SBT2050,2,3,,1,2323,3.18322,-2.6999,0,1697.215,30.1,
1553,1,SBT2050,2,3,,1,2341,3.17583,-2.7001,0,1710.715,30.2,
1553,1,SBT2050,2,3,,1,2359,3.16848,-2.7002,0,1724.214,30.2,
1553,1,SBT2050,2,3,,1,2377,3.16075,-2.6999,0,1737.714,30.3,
1553,1,SBT2050,2,3,,1,2395,3.15287,-2.7002,0,1751.214,30.3,
1553,1,SBT2050,2,3,,1,2413,3.14448,-2.6999,0,1764.714,30.3,
1553,1,SBT2050,2,3,,1,2431,3.13639,-2.7004,0,1778.213,30.4,
1553,1,SBT2050,2,3,,1,2449,3.12771,-2.7001,0,1791.713,30.4,
1553,1,SBT2050,2,3,,1,2467,3.11903,-2.7002,0,1805.213,30.5,
1553,1,SBT2050,2,3,,1,2485,3.11012,-2.6996,0,1818.712,30.5,
1553,1,SBT2050,2,3,,1,2503,3.10076,-2.6998,0,1832.212,30.6,
1553,1,SBT2050,2,3,,1,2521,3.09132,-2.7002,0,1845.712,30.7,
1553,1,SBT2050,2,3,,1,2539,3.08146,-2.7002,0,1859.211,30.8,
1553,1,SBT2050,2,3,,1,2557,3.07134,-2.7001,0,1872.711,30.8,
1553,1,SBT2050,2,3,,1,2575,3.06083,-2.7001,0,1886.211,30.9,
1553,1,SBT2050,2,3,,1,2593,3.049983,-2.6996,0,1899.71,30.9,
1553,1,SBT2050,2,3,,1,2611,3.03868,-2.6997,0,1913.21,31,
1553,1,SBT2050,2,3,,1,2629,3.02712,-2.6999,0,1926.71,31.1,
1553,1,SBT2050,2,3,,1,2647,3.01505,-2.6998,0,1940.21,31.2,
1553,1,SBT2050,2,3,,1,2665,3.00275,-2.7001,0,1953.709,31.2,
1553,1,SBT2050,2,3,,1,2683,2.98974,-2.6999,0,1967.209,31.4,
1553,1,SBT2050,2,3,,1,2701,2.97631,-2.6998,0,1980.709,31.4,
1553,1,SBT2050,2,3,,1,2719,2.96207,-2.6998,0,1994.208,31.6,
1553,1,SBT2050,2,3,,1,2737,2.94724,-2.6999,0,2007.708,31.6,
1553,1,SBT2050,2,3,,1,2755,2.93135,-2.7001,0,2021.208,31.7,
1553,1,SBT2050,2,3,,1,2773,2.91479,-2.6999,0,2034.707,31.8,
1553,1,SBT2050,2,3,,1,2791,2.897148,-2.7002,0,2048.207,32,
1553,1,SBT2050,2,3,,1,2809,2.87819,-2.7,0,2061.707,32,
1553,1,SBT2050,2,3,,1,2827,2.858049,-2.6999,0,2075.206,32.2,
1553,1,SBT2050,2,3,,1,2845,2.83628,-2.7002,0,2088.706,32.3,
1553,1,SBT2050,2,3,,1,2863,2.812512,-2.7002,0,2102.206,32.5,
1553,1,SBT2050,2,3,,1,2881,2.78712,-2.7001,0,2115.706,32.6,
1553,1,SBT2050,2,3,,1,2899,2.75955,-2.7,0,2129.205,32.8,
1553,1,SBT2050,2,3,,1,2917,2.72963,-2.7002,0,2142.705,33,
1553,1,SBT2050,2,3,,1,2935,2.69725,-2.7001,0,2156.205,33.2,
1553,1,SBT2050,2,3,,1,2953,2.66137,-2.7001,0,2169.705,33.4,
1553,1,SBT2050,2,3,,1,2971,2.62089,-2.7001,0,2183.204,33.6,
1553,1,SBT2050,2,3,,1,2989,2.574307,-2.7001,0,2196.704,33.9,
1553,1,SBT2050,2,3,,1,3007,2.51978,-2.7001,0,2210.204,34.2,
1553,1,SBT2050,2,3,,2,3024,3.1396,0,0,2214.535,34.3,
1553,1,SBT2050,2,3,,2,3042,3.22736,0,0,2214.535,33.9,
1553,1,SBT2050,2,3,,2,3060,3.26524,0,0,2214.535,33.4,
1553,1,SBT2050,2,3,,2,3072.774,3.28296,-9.9E-05,0,2214.535,,