File: ORRG/Test1583.csv
Request Year:,2018,,,,,,,,,,,,
Test:,1583,,,,,,,,,,,,
Test Description:,,,,,,,,,,,,,
TestRegime Name:,Aging_Performance,,,,,,,,,,,,
TestRegime Suffix:,SHP_LC,,,,,,,,,,,,
TestRegime CellSize:,18650,,,,,,,,,,,,
TestRegime Version:,1,,,,,,,,,,,,
Number Of Cells:,1,,,,,,,,,,,,
LotID:,,,,,,,,,,,,,
Lot Description:,,,,,,,,,,,,,
Date Made:,1/21/2003 12:00 AM,,,,,,,,,,,,
Origin:,Other,,,,,,,,,,,,
Requestor:,Admin,,,,,,,,,,,,
Product ID:,Default product,,,,,,,,,,,,
Storage Temp:,R.T./AMB,,,,,,,,,,,,
Storage Delay:,0 days,,,,,,,,,,,,
Test Temp:,R.T./AMB,,,,,,,,,,,,
Start Time:,4/28/2018 3:01 PM,,,,,,,,,,,,
End Time:,4/29/2018 3:34 AM,,,,,,,,,,,,
Operator Instructions:,,,,,,,,,,,,,
Test,Cell,Rack,Shelf,Position,Cell ID,Step,Total Time (Seconds),Voltage (V),Current (A),Charge Capacity (mAh),Discharge Capacity (mAh),TC1 (Â°C),
1583,1,SBT2050,2,3,,0,1,3.33514,0,0,0,29.2,
1583,1,SBT2050,2,3,,0,295,3.35242,0,0,0,26.6,
1583,1,SBT2050,2,3,,1,589,2.499938,-0.8197,0,110.39,29.6,
1583,1,SBT2050,2,3,,1,883,2.49983,-0.46097,0,160.486,28.4,
1583,1,SBT2050,2,3,,1,1177,2.499926,-0.30692,0,191.021,27.3,
1583,1,SBT2050,2,3,,1,1471,2.50003,-0.22548,0,212.473,26.7,
1583,1,SBT2050,2,3,,1,1765,2.49996,-0.17198,0,228.569,26.2,
1583,1,SBT2050,2,3,,1,2059,2.500081,-0.13611,0,241.051,25.9,
1583,1,SBT2050,2,3,,1,2353,2.49989,-0.1104,0,251.062,25.8,
1583,1,SBT2050,2,3,,1,2647,2.49999,-0.09144,0,259.267,25.6,
1583,1,SBT2050,2,3,,1,2941,2.49996,-0.07649,0,266.086,25.5,
1583,1,SBT2050,2,3,,1,3235,2.50013,-0.06522,0,271.833,25.4,
1583,1,SBT2050,2,3,,1,3529,2.5,-0.05615,0,276.766,25.4,
1583,1,SBT2050,2,3,,1,3823,2.500081,-0.04876,0,281.037,25.3,
1583,1,SBT2050,2,3,,1,4117,2.49999,-0.042152,0,284.746,25.2,
1583,1,SBT2050,2,3,,1,4411,2.499926,-0.036054,0,287.939,25.2,
1583,1,SBT2050,2,3,,1,4705,2.49996,-0.031433,0,290.691,25.2,
1583,1,SBT2050,2,3,,1,4999,2.50003,-0.02762,0,293.092,25.2,
1583,1,SBT2050,2,3,,1,5293,2.50003,-0.024518,0,295.218,25.1,
1583,1,SBT2050,2,3,,1,5587,2.50003,-0.022037,0,297.118,25.1,
1583,1,SBT2050,2,3,,1,5881,2.50002,-0.019793,0,298.826,25.1,
1583,1,SBT2050,2,3,,1,6175,2.50014,-0.0179,0,300.368,25.1,
1583,1,SBT2050,2,3,,1,6469,2.50005,-0.015966,0,301.753,25,
1583,1,SBT2050,2,3,,1,6763,2.499926,-0.014451,0,302.996,25,
1583,1,SBT2050,2,3,,1,7057,2.500069,-0.012994,0,304.114,25,
1583,1,SBT2050,2,3,,1,7351,2.50001,-0.011594,0,305.117,25.1,
1583,1,SBT2050,2,3,,1,7645,2.50001,-0.010207,0,306.01,25,
1583,1,SBT2050,2,3,,2,7938,3.690784,2.936,202.794,306.136,28,
1583,1,SBT2050,2,3,,2,8232,3.76121,2.9359,442.562,306.136,29.9,
1583,1,SBT2050,2,3,,2,8526,3.81234,2.936,682.33,306.136,30.3,
1583,1,SBT2050,2,3,,2,8820,3.87271,2.9358,922.099,306.136,30.4,
1583,1,SBT2050,2,3,,2,9114,3.94957,2.9362,1161.867,306.136,30.6,
1583,1,SBT2050,2,3,,2,9408,4.0405,2.9364,1401.635,306.136,31,
1583,1,SBT2050,2,3,,2,9702,4.13627,2.9359,1641.404,306.136,31.3,
1583,1,SBT2050,2,3,,2,9996,4.15016,2.0559,1847.31,306.136,30.7,
1583,1,SBT2050,2,3,,2,10290,4.150216,1.4006,1986.208,306.136,28.9,
1583,1,SBT2050,2,3,,2,10584,4.15005,1.0057,2083.094,306.136,27.6,
1583,1,SBT2050,2,3,,2,10878,4.15011,0.7612,2154.543,306.136,26.7,
1583,1,SBT2050,2,3,,2,11172,4.150252,0.6004,2209.736,306.136,26.2,
1583,1,SBT2050,2,3,,2,11466,4.149918,0.4894,2253.968,306.136,25.9,
1583,1,SBT2050,2,3,,2,11760,4.15,0.40721,2290.399,306.136,25.7,
1583,1,SBT2050,2,3,,2,12054,4.14994,0.34296,2320.913,306.136,25.6,
1583,1,SBT2050,2,3,,2,12348,4.14999,0.2949,2346.86,306.136,25.4,
1583,1,SBT2050,2,3,,2,12642,4.15011,0.25617,2369.268,306.136,25.3,
1583,1,SBT2050,2,3,,2,12936,4.14999,0.22541,2388.878,306.136,25.2,
1583,1,SBT2050,2,3,,2,13230,4.150192,0.20015,2406.216,306.136,25.2,
1583,1,SBT2050,2,3,,2,13524,4.14999,0.18015,2421.705,306.136,25.2,
1583,1,SBT2050,2,3,,2,13818,4.15029,0.16192,2435.628,306.136,25.2,
1583,1,SBT2050,2,3,,2,14112,4.150204,0.14716,2448.229,306.136,25.2,
1583,1,SBT2050,2,3,,2,14406,4.14999,0.13446,2459.699,306.136,25.2,
1583,1,SBT2050,2,3,,2,14700,4.14994,0.12291,2470.186,306.136,25.2,
1583,1,SBT2050,2,3,,2,14994,4.15,0.11264,2479.799,306.136,25.1,
1583,1,SBT2050,2,3,,2,15288,4.15024,0.10366,2488.649,306.136,25.1,
1583,1,SBT2050,2,3,,2,15582,4.14993,0.09558,2496.798,306.136,25.1,
1583,1,SBT2050,2,3,,2,15876,4.149918,0.08885,2504.342,306.136,25.1,
1583,1,SBT2050,2,3,,2,16170,4.149894,0.08256,2511.34,306.136,25.1,
1583,1,SBT2050,2,3,,2,16464,4.149918,0.07655,2517.85,306.136,25.1,
1583,1,SBT2050,2,3,,2,16758,4.15003,0.07115,2523.892,306.136,25.1,
1583,1,SBT2050,2,3,,2,17052,4.15001,0.06636,2529.523,306.136,25.1,
1583,1,SBT2050,2,3,,2,17346,4.149918,0.06231,2534.782,306.136,25.1,
1583,1,SBT2050,2,3,,2,17640,4.1501,0.05826,2539.709,306.136,25,
1583,1,SBT2050,2,3,,2,17934,4.14994,0.05465,2544.328,306.136,25,
1583,1,SBT2050,2,3,,2,18228,4.15004,0.05137,2548.655,306.136,25,
1583,1,SBT2050,2,3,,2,18522,4.15,0.04818,2552.718,306.136,25,
1583,1,SBT2050,2,3,,2,18816,4.14982,0.045658,2556.557,306.136,25,
1583,1,SBT2050,2,3,,2,19110,4.15004,0.043362,2560.179,306.136,25,
1583,1,SBT2050,2,3,,2,19404,4.15007,0.040654,2563.603,306.136,25,
1583,1,SBT2050,2,3,,2,19698,4.14972,0.038305,2566.825,306.136,25,
1583,1,SBT2050,2,3,,2,19992,4.15012,0.036147,2569.883,306.136,25,
1583,1,SBT2050,2,3,,2,20286,4.15005,0.034704,2572.786,306.136,25,
1583,1,SBT2050,2,3,,2,20580,4.14987,0.032881,2575.544,306.136,25,
1583,1,SBT2050,2,3,,2,20874,4.14993,0.031316,2578.159,306.136,25,
1583,1,SBT2050,2,3,,2,21168,4.15007,0.030015,2580.658,306.136,25,
1583,1,SBT2050,2,3,,2,21462,4.14997,0.027985,2583.029,306.136,25,
1583,1,SBT2050,2,3,,2,21756,4.15013,0.026841,2585.284,306.136,25,
1583,1,SBT2050,2,3,,2,22050,4.150252,0.025486,2587.438,306.136,25,
1583,1,SBT2050,2,3,,2,22344,4.15012,0.024692,2589.497,306.136,25,
1583,1,SBT2050,2,3,,2,22638,4.14968,0.023482,2591.458,306.136,25,
1583,1,SBT2050,2,3,,2,22932,4.150216,0.022331,2593.332,306.136,25,
1583,1,SBT2050,2,3,,2,23226,4.14995,0.021497,2595.124,306.136,25,
1583,1,SBT2050,2,3,,2,23520,4.150204,0.020426,2596.849,306.136,25,
1583,1,SBT2050,2,3,,2,23814,4.149906,0.019932,2598.508,306.136,25,
1583,1,SBT2050,2,3,,2,24108,4.15003,0.019047,2600.101,306.136,25,
1583,1,SBT2050,2,3,,2,24402,4.15014,0.018254,2601.63,306.136,25,
1583,1,SBT2050,2,3,,2,24696,4.15008,0.017698,2603.096,306.136,25,
1583,1,SBT2050,2,3,,2,24990,4.15024,0.016728,2604.498,306.136,25,
1583,1,SBT2050,2,3,,2,25284,4.14985,0.016333,2605.861,306.136,25,
1583,1,SBT2050,2,3,,2,25578,4.14973,0.015682,2607.165,306.136,25,
1583,1,SBT2050,2,3,,2,25872,4.14999,0.01542,2608.425,306.136,25.1,
1583,1,SBT2050,2,3,,2,26166,4.14995,0.014606,2609.637,306.136,25,
1583,1,SBT2050,2,3,,2,26460,4.150204,0.013723,2610.802,306.136,25,
1583,1,SBT2050,2,3,,2,26754,4.14976,0.013629,2611.931,306.136,25,
1583,1,SBT2050,2,3,,2,27048,4.149918,0.012886,2613.013,306.136,25,
1583,1,SBT2050,2,3,,2,27342,4.14995,0.012759,2614.061,306.136,25,
1583,1,SBT2050,2,3,,2,27636,4.15024,0.012051,2615.075,306.136,25,
1583,1,SBT2050,2,3,,2,27930,4.149906,0.012103,2616.07,306.136,25,
1583,1,SBT2050,2,3,,2,28224,4.15016,0.011212,2617.026,306.136,25,
1583,1,SBT2050,2,3,,2,28518,4.14987,0.011344,2617.952,306.136,25,
1583,1,SBT2050,2,3,,2,28812,4.14997,0.010735,2618.852,306.136,25,
1583,1,SBT2050,2,3,,2,29106,4.15007,0.010436,2619.723,306.136,25,
1583,1,SBT2050,2,3,,3,29399,4.14643,0,2619.753,306.136,25,
1583,1,SBT2050,2,3,,3,29693,4.14567,0,2619.753,306.136,25,
1583,1,SBT2050,2,3,,3,29987,4.14513,0,2619.753,306.136,25,
1583,1,SBT2050,2,3,,3,30281,4.14418,0,2619.753,306.136,25,
1583,1,SBT2050,2,3,,3,30575,4.14349,0,2619.753,306.136,25,
1583,1,SBT2050,2,3,,3,30869,4.14336,0,2619.753,306.136,25,
1583,1,SBT2050,2,3,,4,31162,3.69923,-2.9359,2619.753,506.616,28.4,
1583,1,SBT2050,2,3,,4,31456,3.64355,-2.936,2619.753,746.386,29.7,
1583,1,SBT2050,2,3,,4,31750,3.56567,-2.9359,2619.753,986.156,29.9,
1583,1,SBT2050,2,3,,4,32044,3.48015,-2.9359,2619.753,1225.926,30,
1583,1,SBT2050,2,3,,4,32338,3.391006,-2.936,2619.753,1465.695,30.1,
1583,1,SBT2050,2,3,,4,32632,3.29919,-2.9362,2619.753,1705.465,30.3,
1583,1,SBT2050,2,3,,4,32926,3.19619,-2.9358,2619.753,1945.235,30.8,
1583,1,SBT2050,2,3,,4,33220,3.058935,-2.9356,2619.753,2185.006,31.7,
1583,1,SBT2050,2,3,,4,33514,2.82426,-2.936,2619.753,2424.776,33.5,
1583,1,SBT2050,2,3,,4,33808,2.49978,-1.5932,2619.753,2633.946,35.9,
1583,1,SBT2050,2,3,,4,34102,2.49982,-0.6146,2619.753,2715.036,31.7,
1583,1,SBT2050,2,3,,4,34396,2.49994,-0.36328,2619.753,2752.82,28.6,
1583,1,SBT2050,2,3,,4,34690,2.49994,-0.27145,2619.753,2778.301,27.2,
1583,1,SBT2050,2,3,,4,34984,2.499919,-0.21996,2619.753,2798.214,26.6,
1583,1,SBT2050,2,3,,4,35278,2.50001,-0.18231,2619.753,2814.558,26.2,
1583,1,SBT2050,2,3,,4,35572,2.49974,-0.15173,2619.753,2828.147,26,
1583,1,SBT2050,2,3,,4,35866,2.49998,-0.12875,2619.753,2839.556,25.8,
1583,1,SBT2050,2,3,,4,36160,2.500062,-0.11102,2619.753,2849.333,25.7,
1583,1,SBT2050,2,3,,4,36454,2.49985,-0.09537,2619.753,2857.77,25.6,
1583,1,SBT2050,2,3,,4,36748,2.49994,-0.08234,2619.753,2865.025,25.5,
1583,1,SBT2050,2,3,,4,37042,2.49994,-0.0712,2619.753,2871.283,25.4,
1583,1,SBT2050,2,3,,4,37336,2.49998,-0.06284,2619.753,2876.75,25.4,
1583,1,SBT2050,2,3,,4,37630,2.500062,-0.05626,2619.753,2881.602,25.3,
1583,1,SBT2050,2,3,,4,37924,2.500074,-0.05071,2619.753,2885.972,25.3,
1583,1,SBT2050,2,3,,4,38218,2.50016,-0.046309,2619.753,2889.929,25.3,
1583,1,SBT2050,2,3,,4,38512,2.4999,-0.042043,2619.753,2893.538,25.3,
1583,1,SBT2050,2,3,,4,38806,2.49997,-0.038553,2619.753,2896.831,25.3,
1583,1,SBT2050,2,3,,4,39100,2.5,-0.035282,2619.753,2899.842,25.3,
1583,1,SBT2050,2,3,,4,39394,2.50003,-0.031919,2619.753,2902.598,25.2,
1583,1,SBT2050,2,3,,4,39688,2.49988,-0.029276,2619.753,2905.112,25.2,
1583,1,SBT2050,2,3,,4,39982,2.50003,-0.026601,2619.753,2907.401,25.1,
1583,1,SBT2050,2,3,,4,40276,2.500074,-0.024131,2619.753,2909.476,25.1,
1583,1,SBT2050,2,3,,4,40570,2.499919,-0.021947,2619.753,2911.358,25.1,
1583,1,SBT2050,2,3,,4,40864,2.5001,-0.019797,2619.753,2913.06,25.1,
1583,1,SBT2050,2,3,,4,41158,2.4999,-0.01789,2619.753,2914.6,25.1,
1583,1,SBT2050,2,3,,4,41452,2.50003,-0.016397,2619.753,2916.003,25.1,
1583,1,SBT2050,2,3,,4,41746,2.500074,-0.015136,2619.753,2917.291,25.1,
1583,1,SBT2050,2,3,,4,42040,2.50011,-0.014071,2619.753,2918.486,25.1,
1583,1,SBT2050,2,3,,4,42334,2.5,-0.013196,2619.753,2919.601,25.1,
1583,1,SBT2050,2,3,,4,42628,2.49985,-0.012249,2619.753,2920.644,25.1,
1583,1,SBT2050,2,3,,4,42922,2.49994,-0.01142,2619.753,2921.614,25.1,
1583,1,SBT2050,2,3,,4,43216,2.49998,-0.010703,2619.753,2922.514,25,
1583,1,SBT2050,2,3,,5,43509,2.5744,0,2619.753,2922.982,25,
1583,1,SBT2050,2,3,,5,43803,2.66978,0,2619.753,2922.982,25,
1583,1,SBT2050,2,3,,5,44097,2.72147,0,2619.753,2922.982,25,
1583,1,SBT2050,2,3,,5,44391,2.75212,0,2619.753,2922.982,25,
1583,1,SBT2050,2,3,,5,44685,2.77113,0,2619.753,2922.982,25,
1583,1,SBT2050,2,3,,5,44979,2.78385,0,2619.753,2922.982,25,
1583,1,SBT2050,2,3,,5,45177.477,2.78957,-9.9E-05,2619.753,2922.982,,