File: 1C/Test1503.csv
Request Year:,2018,,,,,,,,,,,,
Test:,1503,,,,,,,,,,,,
Test Description:,,,,,,,,,,,,,
TestRegime Name:,Aging_Performance,,,,,,,,,,,,
TestRegime Suffix:,SHP_LC,,,,,,,,,,,,
TestRegime CellSize:,18650,,,,,,,,,,,,
TestRegime Version:,1,,,,,,,,,,,,
Number Of Cells:,1,,,,,,,,,,,,
LotID:,,,,,,,,,,,,,
Lot Description:,,,,,,,,,,,,,
Date Made:,1/21/2003 12:00 AM,,,,,,,,,,,,
Origin:,Other,,,,,,,,,,,,
Requestor:,Admin,,,,,,,,,,,,
Product ID:,Default product,,,,,,,,,,,,
Storage Temp:,R.T./AMB,,,,,,,,,,,,
Storage Delay:,0 days,,,,,,,,,,,,
Test Temp:,R.T./AMB,,,,,,,,,,,,
Start Time:,4/17/2018 5:21 PM,,,,,,,,,,,,
End Time:,4/18/2018 3:31 AM,,,,,,,,,,,,
Operator Instructions:,,,,,,,,,,,,,
Test,Cell,Rack,Shelf,Position,Cell ID,Step,Total Time (Seconds),Voltage (V),Current (A),Charge Capacity (mAh),Discharge Capacity (mAh),TC1 (Â°C),
1503,1,SBT2050,2,4,,0,1,3.362582,0,0,0,25.1,
1503,1,SBT2050,2,4,,0,239,3.36323,0,0,0,25.1,
1503,1,SBT2050,2,4,,1,477,2.49984,-1.1943,0,87.364,28.6,
1503,1,SBT2050,2,4,,1,715,2.49989,-0.6929,0,147.47,28.8,
1503,1,SBT2050,2,4,,1,953,2.4998,-0.45349,0,184.56,28,
1503,1,SBT2050,2,4,,1,1191,2.49985,-0.32163,0,209.8,27.1,
1503,1,SBT2050,2,4,,1,1429,2.50001,-0.2434,0,228.274,26.6,
1503,1,SBT2050,2,4,,1,1667,2.50007,-0.19349,0,242.592,26.2,
1503,1,SBT2050,2,4,,1,1905,2.49996,-0.15831,0,254.148,25.9,
1503,1,SBT2050,2,4,,1,2143,2.50007,-0.13186,0,263.694,25.8,
1503,1,SBT2050,2,4,,1,2381,2.4999,-0.11144,0,271.705,25.6,
1503,1,SBT2050,2,4,,1,2619,2.49994,-0.09526,0,278.516,25.5,
1503,1,SBT2050,2,4,,1,2857,2.50005,-0.0816,0,284.337,25.4,
1503,1,SBT2050,2,4,,1,3095,2.50003,-0.06937,0,289.311,25.3,
1503,1,SBT2050,2,4,,1,3333,2.4999,-0.05909,0,293.552,25.3,
1503,1,SBT2050,2,4,,1,3571,2.50005,-0.04986,0,297.15,25.3,
1503,1,SBT2050,2,4,,1,3809,2.49994,-0.041918,0,300.178,25.2,
1503,1,SBT2050,2,4,,1,4047,2.49972,-0.035262,0,302.719,25.2,
1503,1,SBT2050,2,4,,1,4285,2.50002,-0.030175,0,304.874,25.1,
1503,1,SBT2050,2,4,,1,4523,2.49989,-0.025833,0,306.724,25.1,
1503,1,SBT2050,2,4,,1,4761,2.49992,-0.022187,0,308.317,25.1,
1503,1,SBT2050,2,4,,1,4999,2.49995,-0.019296,0,309.689,25.1,
1503,1,SBT2050,2,4,,1,5237,2.499995,-0.016584,0,310.87,25.1,
1503,1,SBT2050,2,4,,1,5475,2.499995,-0.014439,0,311.89,25.1,
1503,1,SBT2050,2,4,,1,5713,2.49984,-0.01239,0,312.773,25,
1503,1,SBT2050,2,4,,1,5951,2.50003,-0.010697,0,313.535,25,
1503,1,SBT2050,2,4,,2,6188,3.65399,2.9362,130.444,313.758,26.4,
1503,1,SBT2050,2,4,,2,6426,3.72418,2.936,324.542,313.758,28.5,
1503,1,SBT2050,2,4,,2,6664,3.76649,2.9363,518.64,313.758,29.3,
1503,1,SBT2050,2,4,,2,6902,3.80641,2.9363,712.738,313.758,29.5,
1503,1,SBT2050,2,4,,2,7140,3.85073,2.9361,906.837,313.758,29.5,
1503,1,SBT2050,2,4,,2,7378,3.90401,2.9358,1100.935,313.758,29.6,
1503,1,SBT2050,2,4,,2,7616,3.96769,2.9361,1295.033,313.758,29.7,
1503,1,SBT2050,2,4,,2,7854,4.03739,2.9356,1489.132,313.758,29.9,
1503,1,SBT2050,2,4,,2,8092,4.11133,2.9362,1683.23,313.758,30.1,
1503,1,SBT2050,2,4,,2,8330,4.15005,2.4798,1869.135,313.758,30.1,
1503,1,SBT2050,2,4,,2,8568,4.15006,1.8201,2009.996,313.758,29.1,
1503,1,SBT2050,2,4,,2,8806,4.15016,1.362,2114.248,313.758,28,
1503,1,SBT2050,2,4,,2,9044,4.15019,1.0551,2193.573,313.758,27.2,
1503,1,SBT2050,2,4,,2,9282,4.15001,0.8371,2255.713,313.758,26.6,
1503,1,SBT2050,2,4,,2,9520,4.14995,0.6777,2305.485,313.758,26.2,
1503,1,SBT2050,2,4,,2,9758,4.14988,0.56,2346.201,313.758,25.9,
1503,1,SBT2050,2,4,,2,9996,4.15006,0.4689,2380.071,313.758,25.6,
1503,1,SBT2050,2,4,,2,10234,4.15001,0.39868,2408.665,313.758,25.5,
1503,1,SBT2050,2,4,,2,10472,4.15001,0.34442,2433.158,313.758,25.4,
1503,1,SBT2050,2,4,,2,10710,4.15012,0.30064,2454.446,313.758,25.4,
1503,1,SBT2050,2,4,,2,10948,4.14997,0.26495,2473.119,313.758,25.3,
1503,1,SBT2050,2,4,,2,11186,4.14997,0.23695,2489.682,313.758,25.2,
1503,1,SBT2050,2,4,,2,11424,4.149962,0.21271,2504.518,313.758,25.2,
1503,1,SBT2050,2,4,,2,11662,4.15009,0.193,2517.923,313.758,25.2,
1503,1,SBT2050,2,4,,2,11900,4.15007,0.17538,2530.088,313.758,25.1,
1503,1,SBT2050,2,4,,2,12138,4.15018,0.15968,2541.182,313.758,25.1,
1503,1,SBT2050,2,4,,2,12376,4.14989,0.14664,2551.311,313.758,25.1,
1503,1,SBT2050,2,4,,2,12614,4.15034,0.13416,2560.576,313.758,25.1,
1503,1,SBT2050,2,4,,2,12852,4.15006,0.12385,2569.099,313.758,25.1,
1503,1,SBT2050,2,4,,2,13090,4.15007,0.11403,2576.952,313.758,25.1,
1503,1,SBT2050,2,4,,2,13328,4.14995,0.10514,2584.185,313.758,25,
1503,1,SBT2050,2,4,,2,13566,4.149926,0.09773,2590.877,313.758,25.1,
1503,1,SBT2050,2,4,,2,13804,4.15002,0.09089,2597.099,313.758,25,
1503,1,SBT2050,2,4,,2,14042,4.149962,0.08375,2602.867,313.758,25,
1503,1,SBT2050,2,4,,2,14280,4.149914,0.07857,2608.236,313.758,25,
1503,1,SBT2050,2,4,,2,14518,4.15015,0.07276,2613.245,313.758,25,
1503,1,SBT2050,2,4,,2,14756,4.15007,0.06835,2617.922,313.758,25,
1503,1,SBT2050,2,4,,2,14994,4.15016,0.06403,2622.305,313.758,25,
1503,1,SBT2050,2,4,,2,15232,4.14982,0.06015,2626.404,313.758,25,
1503,1,SBT2050,2,4,,2,15470,4.149926,0.05606,2630.249,313.758,25,
1503,1,SBT2050,2,4,,2,15708,4.15006,0.05298,2633.853,313.758,25,
1503,1,SBT2050,2,4,,2,15946,4.14978,0.05002,2637.255,313.758,25,
1503,1,SBT2050,2,4,,2,16184,4.15015,0.046939,2640.467,313.758,25,
1503,1,SBT2050,2,4,,2,16422,4.15002,0.044616,2643.481,313.758,25,
1503,1,SBT2050,2,4,,2,16660,4.150224,0.041551,2646.328,313.758,24.9,
1503,1,SBT2050,2,4,,2,16898,4.15006,0.03987,2649.029,313.758,25,
1503,1,SBT2050,2,4,,2,17136,4.14976,0.037936,2651.599,313.758,25,
1503,1,SBT2050,2,4,,2,17374,4.149926,0.036042,2654.041,313.758,25,
1503,1,SBT2050,2,4,,2,17612,4.15013,0.034156,2656.353,313.758,25,
1503,1,SBT2050,2,4,,2,17850,4.149914,0.032277,2658.56,313.758,25,
1503,1,SBT2050,2,4,,2,18088,4.149962,0.030866,2660.649,313.758,25,
1503,1,SBT2050,2,4,,2,18326,4.15018,0.029488,2662.641,313.758,24.9,
1503,1,SBT2050,2,4,,2,18564,4.15,0.028113,2664.545,313.758,25,
1503,1,SBT2050,2,4,,2,18802,4.14995,0.026716,2666.354,313.758,25,
1503,1,SBT2050,2,4,,2,19040,4.14983,0.025542,2668.09,313.758,25.1,
1503,1,SBT2050,2,4,,2,19278,4.14995,0.0242,2669.74,313.758,24.9,
1503,1,SBT2050,2,4,,2,19516,4.15002,0.023173,2671.31,313.758,24.9,
1503,1,SBT2050,2,4,,2,19754,4.15001,0.022475,2672.816,313.758,25,
1503,1,SBT2050,2,4,,2,19992,4.1499,0.021841,2674.264,313.758,24.9,
1503,1,SBT2050,2,4,,2,20230,4.14978,0.021274,2675.661,313.758,25,
1503,1,SBT2050,2,4,,2,20468,4.14999,0.019807,2676.993,313.758,25,
1503,1,SBT2050,2,4,,2,20706,4.149914,0.018912,2678.269,313.758,25,
1503,1,SBT2050,2,4,,2,20944,4.15012,0.018258,2679.494,313.758,25,
1503,1,SBT2050,2,4,,2,21182,4.15006,0.017697,2680.677,313.758,25,
1503,1,SBT2050,2,4,,2,21420,4.14995,0.016845,2681.831,313.758,25,
1503,1,SBT2050,2,4,,2,21658,4.14997,0.016274,2682.912,313.758,24.9,
1503,1,SBT2050,2,4,,2,21896,4.14984,0.015912,2683.969,313.758,24.9,
1503,1,SBT2050,2,4,,2,22134,4.15,0.015293,2684.993,313.758,24.9,
1503,1,SBT2050,2,4,,2,22372,4.149914,0.014362,2685.977,313.758,25,
1503,1,SBT2050,2,4,,2,22610,4.149938,0.014262,2686.929,313.758,25,
1503,1,SBT2050,2,4,,2,22848,4.149962,0.013979,2687.851,313.758,24.9,
1503,1,SBT2050,2,4,,2,23086,4.14979,0.013584,2688.749,313.758,25,
1503,1,SBT2050,2,4,,2,23324,4.14999,0.013273,2689.61,313.758,25,
1503,1,SBT2050,2,4,,2,23562,4.14999,0.012434,2690.448,313.758,25,
1503,1,SBT2050,2,4,,2,23800,4.14995,0.012048,2691.249,313.758,25,
1503,1,SBT2050,2,4,,2,24038,4.14999,0.011757,2692.024,313.758,24.9,
1503,1,SBT2050,2,4,,2,24276,4.15005,0.011049,2692.776,313.758,24.9,
1503,1,SBT2050,2,4,,2,24514,4.15037,0.010759,2693.496,313.758,24.9,
1503,1,SBT2050,2,4,,3,24751,4.14676,0,2693.805,313.758,24.9,
1503,1,SBT2050,2,4,,3,24989,4.14554,0,2693.805,313.758,24.9,
1503,1,SBT2050,2,4,,3,25227,4.14491,0,2693.805,313.758,25,
1503,1,SBT2050,2,4,,3,25465,4.14424,0,2693.805,313.758,25,
1503,1,SBT2050,2,4,,3,25703,4.14369,0,2693.805,313.758,25,
1503,1,SBT2050,2,4,,3,25941,4.143274,0,2693.805,313.758,25.1,
1503,1,SBT2050,2,4,,3,26179,4.14297,0,2693.805,313.758,24.9,
1503,1,SBT2050,2,4,,3,26417,4.1426,0,2693.805,313.758,24.9,
1503,1,SBT2050,2,4,,4,26654,3.71357,-2.9361,2693.805,505.326,27.6,
1503,1,SBT2050,2,4,,4,26892,3.67068,-2.9359,2693.805,699.424,28.7,
1503,1,SBT2050,2,4,,4,27130,3.614,-2.9364,2693.805,893.522,28.9,
1503,1,SBT2050,2,4,,4,27368,3.55047,-2.9363,2693.805,1087.62,28.9,
1503,1,SBT2050,2,4,,4,27606,3.48346,-2.9358,2693.805,1281.72,29,
1503,1,SBT2050,2,4,,4,27844,3.41574,-2.9358,2693.805,1475.819,29.1,
1503,1,SBT2050,2,4,,4,28082,3.34747,-2.9357,2693.805,1669.917,29.2,
1503,1,SBT2050,2,4,,4,28320,3.275713,-2.9353,2693.805,1864.016,29.5,
1503,1,SBT2050,2,4,,4,28558,3.19335,-2.9358,2693.805,2058.115,29.9,
1503,1,SBT2050,2,4,,4,28796,3.08817,-2.9361,2693.805,2252.214,30.5,
1503,1,SBT2050,2,4,,4,29034,2.938112,-2.9357,2693.805,2446.312,31.6,
1503,1,SBT2050,2,4,,4,29272,2.63027,-2.9361,2693.805,2640.411,33.5,
1503,1,SBT2050,2,4,,4,29510,2.4999,-1.3397,2693.805,2782.707,34.2,
1503,1,SBT2050,2,4,,4,29748,2.4997,-0.6581,2693.805,2844.841,31.1,
1503,1,SBT2050,2,4,,4,29986,2.49987,-0.41564,2693.805,2879.087,28.8,
1503,1,SBT2050,2,4,,4,30224,2.4999,-0.31215,2693.805,2902.744,27.5,
1503,1,SBT2050,2,4,,4,30462,2.49991,-0.25345,2693.805,2921.326,26.8,
1503,1,SBT2050,2,4,,4,30700,2.500089,-0.20916,2693.805,2936.578,26.4,
1503,1,SBT2050,2,4,,4,30938,2.49989,-0.1729,2693.805,2949.183,25.9,
1503,1,SBT2050,2,4,,4,31176,2.500089,-0.14348,2693.805,2959.609,25.8,
1503,1,SBT2050,2,4,,4,31414,2.499946,-0.11873,2693.805,2968.243,25.7,
1503,1,SBT2050,2,4,,4,31652,2.49981,-0.09806,2693.805,2975.384,25.5,
1503,1,SBT2050,2,4,,4,31890,2.50002,-0.08058,2693.805,2981.264,25.4,
1503,1,SBT2050,2,4,,4,32128,2.50002,-0.06682,2693.805,2986.116,25.3,
1503,1,SBT2050,2,4,,4,32366,2.49997,-0.05573,2693.805,2990.151,25.3,
1503,1,SBT2050,2,4,,4,32604,2.500077,-0.047046,2693.805,2993.538,25.3,
1503,1,SBT2050,2,4,,4,32842,2.50007,-0.040569,2693.805,2996.423,25.3,
1503,1,SBT2050,2,4,,4,33080,2.500089,-0.034786,2693.805,2998.901,25.2,
1503,1,SBT2050,2,4,,4,33318,2.49997,-0.029823,2693.805,3001.031,25,
1503,1,SBT2050,2,4,,4,33556,2.49991,-0.025186,2693.805,3002.854,25,
1503,1,SBT2050,2,4,,4,33794,2.49986,-0.021389,2693.805,3004.399,25,
1503,1,SBT2050,2,4,,4,34032,2.50002,-0.018102,2693.805,3005.702,25.1,
1503,1,SBT2050,2,4,,4,34270,2.50012,-0.015214,2693.805,3006.798,25,
1503,1,SBT2050,2,4,,4,34508,2.49998,-0.012758,2693.805,3007.718,25,
1503,1,SBT2050,2,4,,4,34746,2.499934,-0.010746,2693.805,3008.49,25,
1503,1,SBT2050,2,4,,5,34983,2.57885,0,2693.805,3008.708,25,
1503,1,SBT2050,2,4,,5,35221,2.6447,0,2693.805,3008.708,25.1,
1503,1,SBT2050,2,4,,5,35459,2.68483,0,2693.805,3008.708,25,
1503,1,SBT2050,2,4,,5,35697,2.71159,0,2693.805,3008.708,24.8,
1503,1,SBT2050,2,4,,5,35935,2.73048,0,2693.805,3008.708,24.9,
1503,1,SBT2050,2,4,,5,36173,2.74521,0,2693.805,3008.708,25,
1503,1,SBT2050,2,4,,5,36411,2.756761,0,2693.805,3008.708,25,
1503,1,SBT2050,2,4,,5,36621.218,2.76521,-0.0001,2693.805,3008.708,,