File: 1C/Test1423.csv
Request Year:,2018,,,,,,,,,,,,
Test:,1423,,,,,,,,,,,,
Test Description:,,,,,,,,,,,,,
TestRegime Name:,Aging_Performance,,,,,,,,,,,,
TestRegime Suffix:,SHP_LC,,,,,,,,,,,,
TestRegime CellSize:,18650,,,,,,,,,,,,
TestRegime Version:,1,,,,,,,,,,,,
Number Of Cells:,1,,,,,,,,,,,,
LotID:,,,,,,,,,,,,,
Lot Description:,,,,,,,,,,,,,
Date Made:,1/21/2003 12:00 AM,,,,,,,,,,,,
Origin:,Other,,,,,,,,,,,,
Requestor:,Admin,,,,,,,,,,,,
Product ID:,Default product,,,,,,,,,,,,
Storage Temp:,R.T./AMB,,,,,,,,,,,,
Storage Delay:,0 days,,,,,,,,,,,,
Test Temp:,R.T./AMB,,,,,,,,,,,,
Start Time:,3/29/2018 1:09 PM,,,,,,,,,,,,
End Time:,3/29/2018 7:37 PM,,,,,,,,,,,,
Operator Instructions:,,,,,,,,,,,,,
Test,Cell,Rack,Shelf,Position,Cell ID,Step,Total Time (Seconds),Voltage (V),Current (A),Charge Capacity (mAh),Discharge Capacity (mAh),TC1 (Â°C),
1423,1,SBT2050,2,4,,0,1,3.33046,0,0,0,25.1,
1423,1,SBT2050,2,4,,0,151,3.330362,0,0,0,25.1,
1423,1,SBT2050,2,4,,1,301,3.070736,-2.9362,0,0.814,25.1,
1423,1,SBT2050,2,4,,1,451,2.49983,-1.1187,0,71.155,28.2,
1423,1,SBT2050,2,4,,1,601,2.49977,-0.7056,0,108.124,28.6,
1423,1,SBT2050,2,4,,1,751,2.49981,-0.4772,0,132.354,28.1,
1423,1,SBT2050,2,4,,1,901,2.5,-0.33617,0,149.076,27.5,
1423,1,SBT2050,2,4,,1,1051,2.499889,-0.23651,0,160.917,26.8,
1423,1,SBT2050,2,4,,1,1201,2.49976,-0.16161,0,169.145,26.3,
1423,1,SBT2050,2,4,,1,1351,2.49982,-0.10132,0,174.6,26,
1423,1,SBT2050,2,4,,1,1501,2.49985,-0.05322,0,177.737,25.7,
1423,1,SBT2050,2,4,,1,1651,2.4999,-0.02879,0,179.364,25.5,
1423,1,SBT2050,2,4,,1,1801,2.500032,-0.0202,0,180.353,25.3,
1423,1,SBT2050,2,4,,1,1951,2.50006,-0.016939,0,181.117,25.2,
1423,1,SBT2050,2,4,,1,2101,2.49996,-0.015072,0,181.78,25.2,
1423,1,SBT2050,2,4,,1,2251,2.50008,-0.013896,0,182.381,25.1,
1423,1,SBT2050,2,4,,1,2401,2.49995,-0.012589,0,182.932,25.1,
1423,1,SBT2050,2,4,,1,2551,2.49981,-0.011668,0,183.444,25.1,
1423,1,SBT2050,2,4,,1,2701,2.50012,-0.011193,0,183.922,25.2,
1423,1,SBT2050,2,4,,1,2851,2.5,-0.010409,0,184.372,25.1,
1423,1,SBT2050,2,4,,2,3000,3.334892,2.9355,32.936,184.683,25.3,
1423,1,SBT2050,2,4,,2,3150,3.58889,2.9362,155.268,184.683,26.4,
1423,1,SBT2050,2,4,,2,3300,3.62113,2.9355,277.599,184.683,27.6,
1423,1,SBT2050,2,4,,2,3450,3.6526,2.9361,399.93,184.683,28,
1423,1,SBT2050,2,4,,2,3600,3.67682,2.9359,522.262,184.683,28.2,
1423,1,SBT2050,2,4,,2,3750,3.69895,2.9356,644.593,184.683,28.2,
1423,1,SBT2050,2,4,,2,3900,3.72448,2.9355,766.924,184.683,28.2,
1423,1,SBT2050,2,4,,2,4050,3.749806,2.9364,889.256,184.683,28.2,
1423,1,SBT2050,2,4,,2,4200,3.77625,2.9362,1011.588,184.683,28.2,
1423,1,SBT2050,2,4,,2,4350,3.8047,2.9362,1133.919,184.683,28.2,
1423,1,SBT2050,2,4,,2,4500,3.83627,2.9363,1256.25,184.683,28.4,
1423,1,SBT2050,2,4,,2,4650,3.87187,2.9361,1378.582,184.683,28.6,
1423,1,SBT2050,2,4,,2,4800,3.91159,2.9362,1500.914,184.683,28.7,
1423,1,SBT2050,2,4,,2,4950,3.9548,2.9361,1623.245,184.683,28.9,
1423,1,SBT2050,2,4,,2,5100,3.99803,2.9354,1745.577,184.683,29.1,
1423,1,SBT2050,2,4,,2,5250,4.04239,2.9362,1867.908,184.683,29.2,
1423,1,SBT2050,2,4,,2,5400,4.08636,2.9355,1990.239,184.683,29.3,
1423,1,SBT2050,2,4,,2,5550,4.13077,2.9358,2112.57,184.683,29.4,
1423,1,SBT2050,2,4,,2,5700,4.150138,2.4849,2228.889,184.683,29.4,
1423,1,SBT2050,2,4,,2,5850,4.1501,1.9013,2319.775,184.683,29,
1423,1,SBT2050,2,4,,2,6000,4.150174,1.4661,2389.539,184.683,28.3,
1423,1,SBT2050,2,4,,2,6150,4.15013,1.1566,2443.839,184.683,27.7,
1423,1,SBT2050,2,4,,2,6300,4.15002,0.939,2487.196,184.683,27.3,
1423,1,SBT2050,2,4,,2,6450,4.1502,0.7832,2522.863,184.683,26.9,
1423,1,SBT2050,2,4,,2,6600,4.15011,0.6658,2552.925,184.683,26.6,
1423,1,SBT2050,2,4,,2,6750,4.1501,0.5771,2578.787,184.683,26.5,
1423,1,SBT2050,2,4,,2,6900,4.15,0.5058,2601.316,184.683,26.4,
1423,1,SBT2050,2,4,,2,7050,4.14992,0.44774,2621.171,184.683,26.2,
1423,1,SBT2050,2,4,,2,7200,4.14991,0.39858,2638.769,184.683,26.2,
1423,1,SBT2050,2,4,,2,7350,4.150162,0.35512,2654.468,184.683,26.1,
1423,1,SBT2050,2,4,,2,7500,4.15021,0.31915,2668.518,184.683,26.1,
1423,1,SBT2050,2,4,,2,7650,4.15003,0.28794,2681.157,184.683,26,
1423,1,SBT2050,2,4,,2,7800,4.15,0.25903,2692.555,184.683,26,
1423,1,SBT2050,2,4,,2,7950,4.15015,0.23463,2702.849,184.683,26,
1423,1,SBT2050,2,4,,2,8100,4.1501,0.21198,2712.15,184.683,26,
1423,1,SBT2050,2,4,,2,8250,4.15026,0.19226,2720.58,184.683,26,
1423,1,SBT2050,2,4,,2,8400,4.1499,0.17505,2728.232,184.683,26,
1423,1,SBT2050,2,4,,2,8550,4.15002,0.15798,2735.154,184.683,26,
1423,1,SBT2050,2,4,,2,8700,4.15,0.14401,2741.438,184.683,26,
1423,1,SBT2050,2,4,,2,8850,4.15015,0.13108,2747.171,184.683,26,
1423,1,SBT2050,2,4,,2,9000,4.15021,0.12093,2752.392,184.683,26,
1423,1,SBT2050,2,4,,2,9150,4.14995,0.10966,2757.158,184.683,26,
1423,1,SBT2050,2,4,,2,9300,4.149876,0.09948,2761.511,184.683,26,
1423,1,SBT2050,2,4,,2,9450,4.14992,0.09109,2765.487,184.683,26,
1423,1,SBT2050,2,4,,2,9600,4.14985,0.08352,2769.126,184.683,26,
1423,1,SBT2050,2,4,,2,9750,4.15008,0.07623,2772.464,184.683,26,
1423,1,SBT2050,2,4,,2,9900,4.15009,0.07027,2775.521,184.683,26,
1423,1,SBT2050,2,4,,2,10050,4.15015,0.06436,2778.333,184.683,26,
1423,1,SBT2050,2,4,,2,10200,4.14992,0.06021,2780.942,184.683,26,
1423,1,SBT2050,2,4,,2,10350,4.14998,0.05536,2783.347,184.683,26,
1423,1,SBT2050,2,4,,2,10500,4.14992,0.05151,2785.569,184.683,26,
1423,1,SBT2050,2,4,,2,10650,4.15001,0.047218,2787.634,184.683,26,
1423,1,SBT2050,2,4,,2,10800,4.15005,0.044147,2789.528,184.683,26,
1423,1,SBT2050,2,4,,2,10950,4.149864,0.041174,2791.293,184.683,26.1,
1423,1,SBT2050,2,4,,2,11100,4.15002,0.038398,2792.941,184.683,26.1,
1423,1,SBT2050,2,4,,2,11250,4.15013,0.034215,2794.468,184.683,26.1,
1423,1,SBT2050,2,4,,2,11400,4.14983,0.03272,2795.879,184.683,26.1,
1423,1,SBT2050,2,4,,2,11550,4.14982,0.030387,2797.198,184.683,26,
1423,1,SBT2050,2,4,,2,11700,4.15005,0.02837,2798.43,184.683,26.1,
1423,1,SBT2050,2,4,,2,11850,4.1502,0.026355,2799.577,184.683,26,
1423,1,SBT2050,2,4,,2,12000,4.14982,0.024796,2800.653,184.683,26,
1423,1,SBT2050,2,4,,2,12150,4.1499,0.023496,2801.658,184.683,26,
1423,1,SBT2050,2,4,,2,12300,4.15009,0.02129,2802.606,184.683,26,
1423,1,SBT2050,2,4,,2,12450,4.15,0.020681,2803.496,184.683,26,
1423,1,SBT2050,2,4,,2,12600,4.149876,0.019362,2804.323,184.683,26.1,
1423,1,SBT2050,2,4,,2,12750,4.14996,0.018267,2805.11,184.683,26,
1423,1,SBT2050,2,4,,2,12900,4.15032,0.017243,2805.864,184.683,26.1,
1423,1,SBT2050,2,4,,2,13050,4.150174,0.015945,2806.553,184.683,26,
1423,1,SBT2050,2,4,,2,13200,4.15013,0.016259,2807.218,184.683,26,
1423,1,SBT2050,2,4,,2,13350,4.149876,0.014326,2807.846,184.683,26,
1423,1,SBT2050,2,4,,2,13500,4.15007,0.013536,2808.447,184.683,26.1,
1423,1,SBT2050,2,4,,2,13650,4.14983,0.013102,2809.003,184.683,26,
1423,1,SBT2050,2,4,,2,13800,4.15004,0.011937,2809.519,184.683,26,
1423,1,SBT2050,2,4,,2,13950,4.15011,0.012125,2810.015,184.683,26,
1423,1,SBT2050,2,4,,3,14099,4.14854,0,2810.188,184.683,25.6,
1423,1,SBT2050,2,4,,3,14249,4.14862,0,2810.188,184.683,24.6,
1423,1,SBT2050,2,4,,3,14399,4.148014,0,2810.188,184.683,24.2,
1423,1,SBT2050,2,4,,3,14549,4.14768,0,2810.188,184.683,24.2,
1423,1,SBT2050,2,4,,3,14699,4.14767,0,2810.188,184.683,24.4,
1423,1,SBT2050,2,4,,3,14849,4.14766,0,2810.188,184.683,24.6,
1423,1,SBT2050,2,4,,3,14999,4.1475,0,2810.188,184.683,24.7,
1423,1,SBT2050,2,4,,3,15149,4.14703,0,2810.188,184.683,24.9,
1423,1,SBT2050,2,4,,3,15299,4.14686,0,2810.188,184.683,25,
1423,1,SBT2050,2,4,,3,15449,4.1467,0,2810.188,184.683,25,
1423,1,SBT2050,2,4,,3,15599,4.14685,0,2810.188,184.683,25,
1423,1,SBT2050,2,4,,3,15749,4.14644,0,2810.188,184.683,25,
1423,1,SBT2050,2,4,,4,15898,3.87733,-2.9361,2810.188,260.306,25.8,
1423,1,SBT2050,2,4,,4,16048,3.84829,-2.936,2810.188,382.638,26.8,
1423,1,SBT2050,2,4,,4,16198,3.81855,-2.9362,2810.188,504.969,27.3,
1423,1,SBT2050,2,4,,4,16348,3.78122,-2.9355,2810.188,627.3,27.5,
1423,1,SBT2050,2,4,,4,16498,3.742826,-2.9356,2810.188,749.631,27.4,
1423,1,SBT2050,2,4,,4,16648,3.70454,-2.9356,2810.188,871.963,27.5,
1423,1,SBT2050,2,4,,4,16798,3.665894,-2.9354,2810.188,994.294,27.4,
1423,1,SBT2050,2,4,,4,16948,3.6254,-2.9361,2810.188,1116.625,27.5,
1423,1,SBT2050,2,4,,4,17098,3.582006,-2.9357,2810.188,1238.956,27.5,
1423,1,SBT2050,2,4,,4,17248,3.538624,-2.9358,2810.188,1361.287,27.6,
1423,1,SBT2050,2,4,,4,17398,3.49718,-2.9358,2810.188,1483.618,27.7,
1423,1,SBT2050,2,4,,4,17548,3.458726,-2.9361,2810.188,1605.95,27.7,
1423,1,SBT2050,2,4,,4,17698,3.42369,-2.9358,2810.188,1728.281,27.8,
1423,1,SBT2050,2,4,,4,17848,3.39027,-2.9362,2810.188,1850.612,27.9,
1423,1,SBT2050,2,4,,4,17998,3.35643,-2.9361,2810.188,1972.943,28,
1423,1,SBT2050,2,4,,4,18148,3.3188,-2.9355,2810.188,2095.274,28.2,
1423,1,SBT2050,2,4,,4,18298,3.274979,-2.9358,2810.188,2217.606,28.3,
1423,1,SBT2050,2,4,,4,18448,3.2187,-2.9362,2810.188,2339.937,28.6,
1423,1,SBT2050,2,4,,4,18598,3.1407,-2.9359,2810.188,2462.269,29.1,
1423,1,SBT2050,2,4,,4,18748,3.02196,-2.9359,2810.188,2584.6,29.8,
1423,1,SBT2050,2,4,,4,18898,2.8119,-2.936,2810.188,2706.931,31,
1423,1,SBT2050,2,4,,4,19048,2.4998,-2.3849,2810.188,2825.949,33.4,
1423,1,SBT2050,2,4,,4,19198,2.49992,-1.2873,2810.188,2900.263,33.5,
1423,1,SBT2050,2,4,,4,19348,2.49965,-0.6894,2810.188,2940.043,31.6,
1423,1,SBT2050,2,4,,4,19498,2.49984,-0.39493,2810.188,2961.96,29.5,
1423,1,SBT2050,2,4,,4,19648,2.499849,-0.22632,2810.188,2974.623,28,
1423,1,SBT2050,2,4,,4,19798,2.49966,-0.12375,2810.188,2981.767,26.9,
1423,1,SBT2050,2,4,,4,19948,2.49973,-0.05945,2810.188,2985.451,26.3,
1423,1,SBT2050,2,4,,4,20098,2.49983,-0.030734,2810.188,2987.228,25.8,
1423,1,SBT2050,2,4,,4,20248,2.49988,-0.021477,2810.188,2988.284,25.5,
1423,1,SBT2050,2,4,,4,20398,2.49994,-0.018079,2810.188,2989.101,25.3,
1423,1,SBT2050,2,4,,4,20548,2.49993,-0.016157,2810.188,2989.809,25.2,
1423,1,SBT2050,2,4,,4,20698,2.50025,-0.014764,2810.188,2990.449,25.2,
1423,1,SBT2050,2,4,,4,20848,2.50012,-0.013579,2810.188,2991.037,25.2,
1423,1,SBT2050,2,4,,4,20998,2.50002,-0.012526,2810.188,2991.58,25.3,
1423,1,SBT2050,2,4,,4,21148,2.49998,-0.011778,2810.188,2992.086,25.3,
1423,1,SBT2050,2,4,,4,21298,2.49993,-0.010922,2810.188,2992.56,25.4,
1423,1,SBT2050,2,4,,4,21448,2.5001,-0.01038,2810.188,2993.01,25.4,
1423,1,SBT2050,2,4,,5,21597,2.5806,0,2810.188,2993.034,25.4,
1423,1,SBT2050,2,4,,5,21747,2.63527,0,2810.188,2993.034,25.4,
1423,1,SBT2050,2,4,,5,21897,2.67358,0,2810.188,2993.034,25.4,
1423,1,SBT2050,2,4,,5,22047,2.70159,0,2810.188,2993.034,25.4,
1423,1,SBT2050,2,4,,5,22197,2.72323,0,2810.188,2993.034,25.4,
1423,1,SBT2050,2,4,,5,22347,2.7406,0,2810.188,2993.034,25.4,
1423,1,SBT2050,2,4,,5,22497,2.75443,0,2810.188,2993.034,25.1,
1423,1,SBT2050,2,4,,5,22647,2.76562,0,2810.188,2993.034,24.9,
1423,1,SBT2050,2,4,,5,22797,2.775328,0,2810.188,2993.034,24.9,
1423,1,SBT2050,2,4,,5,22947,2.78342,0,2810.188,2993.034,25,
1423,1,SBT2050,2,4,,5,23097,2.790401,0,2810.188,2993.034,25,
1423,1,SBT2050,2,4,,5,23247,2.79658,0,2810.188,2993.034,25,
1423,1,SBT2050,2,4,,5,23256.479,2.79707,-9.9E-05,2810.188,2993.034,,