File: 1C/Test1499.csv
Request Year:,2018,,,,,,,,,,,,
Test:,1499,,,,,,,,,,,,
Test Description:,,,,,,,,,,,,,
TestRegime Name:,Aging_Performance,,,,,,,,,,,,
TestRegime Suffix:,SHP_LC,,,,,,,,,,,,
TestRegime CellSize:,18650,,,,,,,,,,,,
TestRegime Version:,1,,,,,,,,,,,,
Number Of Cells:,1,,,,,,,,,,,,
LotID:,,,,,,,,,,,,,
Lot Description:,,,,,,,,,,,,,
Date Made:,1/21/2003 12:00 AM,,,,,,,,,,,,
Origin:,Other,,,,,,,,,,,,
Requestor:,Admin,,,,,,,,,,,,
Product ID:,Default product,,,,,,,,,,,,
Storage Temp:,R.T./AMB,,,,,,,,,,,,
Storage Delay:,0 days,,,,,,,,,,,,
Test Temp:,R.T./AMB,,,,,,,,,,,,
Start Time:,4/13/2018 9:43 AM,,,,,,,,,,,,
End Time:,4/13/2018 6:36 PM,,,,,,,,,,,,
Operator Instructions:,,,,,,,,,,,,,
Test,Cell,Rack,Shelf,Position,Cell ID,Step,Total Time (Seconds),Voltage (V),Current (A),Charge Capacity (mAh),Discharge Capacity (mAh),TC1 (Â°C),
1499,1,SBT2050,2,4,,0,1,3.35308,0,0,0,24.4,
1499,1,SBT2050,2,4,,0,206,3.35326,0,0,0,24.7,
1499,1,SBT2050,2,4,,1,411,2.49991,-1.4901,0,66.105,27.6,
1499,1,SBT2050,2,4,,1,616,2.499695,-0.7893,0,128.146,28.6,
1499,1,SBT2050,2,4,,1,821,2.49978,-0.49,0,163.583,28,
1499,1,SBT2050,2,4,,1,1026,2.49991,-0.33536,0,186.61,27.2,
1499,1,SBT2050,2,4,,1,1231,2.49993,-0.24853,0,203.041,26.4,
1499,1,SBT2050,2,4,,1,1436,2.49979,-0.195,0,215.561,26,
1499,1,SBT2050,2,4,,1,1641,2.499993,-0.15867,0,225.57,25.8,
1499,1,SBT2050,2,4,,1,1846,2.4999,-0.13127,0,233.799,25.8,
1499,1,SBT2050,2,4,,1,2051,2.50003,-0.11017,0,240.648,25.6,
1499,1,SBT2050,2,4,,1,2256,2.5,-0.09313,0,246.414,25.5,
1499,1,SBT2050,2,4,,1,2461,2.499981,-0.07899,0,251.296,25.4,
1499,1,SBT2050,2,4,,1,2666,2.50004,-0.06682,0,255.438,25.3,
1499,1,SBT2050,2,4,,1,2871,2.5,-0.05665,0,258.945,25.3,
1499,1,SBT2050,2,4,,1,3076,2.49996,-0.04806,0,261.914,25.3,
1499,1,SBT2050,2,4,,1,3281,2.49981,-0.040439,0,264.421,25.2,
1499,1,SBT2050,2,4,,1,3486,2.499981,-0.03459,0,266.548,25.1,
1499,1,SBT2050,2,4,,1,3691,2.49991,-0.029331,0,268.365,25.1,
1499,1,SBT2050,2,4,,1,3896,2.49989,-0.025238,0,269.918,25.1,
1499,1,SBT2050,2,4,,1,4101,2.499981,-0.021359,0,271.24,25.1,
1499,1,SBT2050,2,4,,1,4306,2.50006,-0.018121,0,272.363,25.1,
1499,1,SBT2050,2,4,,1,4511,2.50002,-0.01506,0,273.308,25.1,
1499,1,SBT2050,2,4,,1,4716,2.50004,-0.012709,0,274.097,25.1,
1499,1,SBT2050,2,4,,1,4921,2.4998,-0.010409,0,274.751,25.1,
1499,1,SBT2050,2,4,,2,5125,3.63437,2.9365,146.467,274.82,26.5,
1499,1,SBT2050,2,4,,2,5330,3.69043,2.9357,313.653,274.82,28.2,
1499,1,SBT2050,2,4,,2,5535,3.73033,2.9358,480.839,274.82,28.9,
1499,1,SBT2050,2,4,,2,5740,3.76099,2.9358,648.025,274.82,29,
1499,1,SBT2050,2,4,,2,5945,3.79634,2.9356,815.211,274.82,29,
1499,1,SBT2050,2,4,,2,6150,3.83413,2.9357,982.398,274.82,29,
1499,1,SBT2050,2,4,,2,6355,3.87827,2.9355,1149.584,274.82,29,
1499,1,SBT2050,2,4,,2,6560,3.93058,2.9356,1316.77,274.82,29.2,
1499,1,SBT2050,2,4,,2,6765,3.98946,2.9359,1483.956,274.82,29.4,
1499,1,SBT2050,2,4,,2,6970,4.05126,2.9357,1651.142,274.82,29.6,
1499,1,SBT2050,2,4,,2,7175,4.11548,2.9364,1818.328,274.82,29.7,
1499,1,SBT2050,2,4,,2,7380,4.14991,2.5169,1979.194,274.82,29.8,
1499,1,SBT2050,2,4,,2,7585,4.15009,1.8948,2103.985,274.82,29,
1499,1,SBT2050,2,4,,2,7790,4.150044,1.4429,2198.231,274.82,28.1,
1499,1,SBT2050,2,4,,2,7995,4.150068,1.1228,2270.783,274.82,27.3,
1499,1,SBT2050,2,4,,2,8200,4.150056,0.8973,2328.001,274.82,26.8,
1499,1,SBT2050,2,4,,2,8405,4.14998,0.7321,2374.16,274.82,26.4,
1499,1,SBT2050,2,4,,2,8610,4.15002,0.606,2412.161,274.82,26.1,
1499,1,SBT2050,2,4,,2,8815,4.14995,0.5113,2443.905,274.82,25.9,
1499,1,SBT2050,2,4,,2,9020,4.15014,0.43794,2470.81,274.82,25.7,
1499,1,SBT2050,2,4,,2,9225,4.14998,0.37835,2493.972,274.82,25.6,
1499,1,SBT2050,2,4,,2,9430,4.15002,0.3318,2514.101,274.82,25.5,
1499,1,SBT2050,2,4,,2,9635,4.15009,0.29088,2531.739,274.82,25.4,
1499,1,SBT2050,2,4,,2,9840,4.14984,0.25879,2547.396,274.82,25.3,
1499,1,SBT2050,2,4,,2,10045,4.14996,0.23174,2561.367,274.82,25.3,
1499,1,SBT2050,2,4,,2,10250,4.14989,0.21015,2573.932,274.82,25.3,
1499,1,SBT2050,2,4,,2,10455,4.15019,0.1907,2585.316,274.82,25.3,
1499,1,SBT2050,2,4,,2,10660,4.150068,0.17352,2595.661,274.82,25.4,
1499,1,SBT2050,2,4,,2,10865,4.150056,0.15898,2605.112,274.82,25.4,
1499,1,SBT2050,2,4,,2,11070,4.15008,0.14541,2613.747,274.82,25.5,
1499,1,SBT2050,2,4,,2,11275,4.14977,0.13379,2621.674,274.82,25.5,
1499,1,SBT2050,2,4,,2,11480,4.14997,0.12423,2628.981,274.82,25.6,
1499,1,SBT2050,2,4,,2,11685,4.15029,0.1127,2635.762,274.82,25.6,
1499,1,SBT2050,2,4,,2,11890,4.14973,0.10571,2641.805,274.82,25.6,
1499,1,SBT2050,2,4,,2,12095,4.14981,0.09792,2647.591,274.82,25.7,
1499,1,SBT2050,2,4,,2,12300,4.14996,0.09026,2652.921,274.82,25.1,
1499,1,SBT2050,2,4,,2,12505,4.150056,0.0841,2657.864,274.82,24.8,
1499,1,SBT2050,2,4,,2,12710,4.15,0.07815,2662.475,274.82,24.9,
1499,1,SBT2050,2,4,,2,12915,4.14996,0.07269,2666.786,274.82,25,
1499,1,SBT2050,2,4,,2,13120,4.15,0.06819,2670.798,274.82,25,
1499,1,SBT2050,2,4,,2,13325,4.14992,0.06409,2674.552,274.82,25,
1499,1,SBT2050,2,4,,2,13530,4.15,0.06015,2678.089,274.82,25.1,
1499,1,SBT2050,2,4,,2,13735,4.15009,0.05672,2681.403,274.82,25.2,
1499,1,SBT2050,2,4,,2,13940,4.15015,0.05292,2684.532,274.82,25.3,
1499,1,SBT2050,2,4,,2,14145,4.14982,0.05019,2687.459,274.82,25.4,
1499,1,SBT2050,2,4,,2,14350,4.14998,0.046456,2690.205,274.82,25.2,
1499,1,SBT2050,2,4,,2,14555,4.14992,0.043875,2692.779,274.82,24.9,
1499,1,SBT2050,2,4,,2,14760,4.15012,0.041385,2695.212,274.82,25,
1499,1,SBT2050,2,4,,2,14965,4.150056,0.039213,2697.513,274.82,25,
1499,1,SBT2050,2,4,,2,15170,4.15018,0.037229,2699.699,274.82,25,
1499,1,SBT2050,2,4,,2,15375,4.150044,0.035501,2701.754,274.82,25,
1499,1,SBT2050,2,4,,2,15580,4.15013,0.033984,2703.708,274.82,25,
1499,1,SBT2050,2,4,,2,15785,4.14987,0.031773,2705.562,274.82,25,
1499,1,SBT2050,2,4,,2,15990,4.15013,0.030282,2707.319,274.82,25,
1499,1,SBT2050,2,4,,2,16195,4.1501,0.028508,2708.982,274.82,25,
1499,1,SBT2050,2,4,,2,16400,4.15009,0.028094,2710.574,274.82,25,
1499,1,SBT2050,2,4,,2,16605,4.14994,0.025993,2712.082,274.82,25,
1499,1,SBT2050,2,4,,2,16810,4.14991,0.025047,2713.526,274.82,25,
1499,1,SBT2050,2,4,,2,17015,4.14984,0.023659,2714.915,274.82,25,
1499,1,SBT2050,2,4,,2,17220,4.15012,0.022864,2716.233,274.82,25,
1499,1,SBT2050,2,4,,2,17425,4.14995,0.021652,2717.503,274.82,25,
1499,1,SBT2050,2,4,,2,17630,4.14984,0.021105,2718.716,274.82,25,
1499,1,SBT2050,2,4,,2,17835,4.14981,0.01983,2719.878,274.82,25.1,
1499,1,SBT2050,2,4,,2,18040,4.1501,0.019274,2720.983,274.82,25,
1499,1,SBT2050,2,4,,2,18245,4.15014,0.018459,2722.047,274.82,25,
1499,1,SBT2050,2,4,,2,18450,4.14988,0.017598,2723.076,274.82,25,
1499,1,SBT2050,2,4,,2,18655,4.15013,0.016906,2724.056,274.82,25.1,
1499,1,SBT2050,2,4,,2,18860,4.14984,0.01595,2725.003,274.82,25,
1499,1,SBT2050,2,4,,2,19065,4.14988,0.015984,2725.918,274.82,25,
1499,1,SBT2050,2,4,,2,19270,4.15012,0.015312,2726.786,274.82,25,
1499,1,SBT2050,2,4,,2,19475,4.14994,0.014734,2727.635,274.82,25,
1499,1,SBT2050,2,4,,2,19680,4.14992,0.014286,2728.458,274.82,25,
1499,1,SBT2050,2,4,,2,19885,4.14983,0.013111,2729.246,274.82,25,
1499,1,SBT2050,2,4,,2,20090,4.15012,0.012484,2729.989,274.82,25.1,
1499,1,SBT2050,2,4,,2,20295,4.150044,0.01227,2730.718,274.82,25.1,
1499,1,SBT2050,2,4,,2,20500,4.1501,0.012687,2731.42,274.82,25,
1499,1,SBT2050,2,4,,2,20705,4.15008,0.011742,2732.095,274.82,25,
1499,1,SBT2050,2,4,,2,20910,4.150044,0.011474,2732.744,274.82,25,
1499,1,SBT2050,2,4,,2,21115,4.15021,0.010943,2733.378,274.82,25,
1499,1,SBT2050,2,4,,3,21319,4.14758,0,2733.711,274.82,25,
1499,1,SBT2050,2,4,,3,21524,4.146272,0,2733.711,274.82,25,
1499,1,SBT2050,2,4,,3,21729,4.14561,0,2733.711,274.82,25,
1499,1,SBT2050,2,4,,3,21934,4.144972,0,2733.711,274.82,25,
1499,1,SBT2050,2,4,,3,22139,4.14475,0,2733.711,274.82,25.1,
1499,1,SBT2050,2,4,,3,22344,4.14446,0,2733.711,274.82,25,
1499,1,SBT2050,2,4,,3,22549,4.14443,0,2733.711,274.82,25,
1499,1,SBT2050,2,4,,3,22754,4.14397,0,2733.711,274.82,25.1,
1499,1,SBT2050,2,4,,3,22959,4.143612,0,2733.711,274.82,25,
1499,1,SBT2050,2,4,,4,23163,3.76388,-2.9361,2733.711,387.479,26.7,
1499,1,SBT2050,2,4,,4,23368,3.72861,-2.9359,2733.711,554.664,28.1,
1499,1,SBT2050,2,4,,4,23573,3.68898,-2.9358,2733.711,721.849,28.6,
1499,1,SBT2050,2,4,,4,23778,3.640524,-2.9361,2733.711,889.035,28.6,
1499,1,SBT2050,2,4,,4,23983,3.586834,-2.9365,2733.711,1056.221,28.7,
1499,1,SBT2050,2,4,,4,24188,3.53029,-2.936,2733.711,1223.406,28.7,
1499,1,SBT2050,2,4,,4,24393,3.47219,-2.936,2733.711,1390.591,28.7,
1499,1,SBT2050,2,4,,4,24598,3.41635,-2.9359,2733.711,1557.777,28.8,
1499,1,SBT2050,2,4,,4,24803,3.36134,-2.9363,2733.711,1724.963,28.9,
1499,1,SBT2050,2,4,,4,25008,3.30409,-2.9359,2733.711,1892.148,29,
1499,1,SBT2050,2,4,,4,25213,3.239796,-2.9361,2733.711,2059.334,29.4,
1499,1,SBT2050,2,4,,4,25418,3.16069,-2.9364,2733.711,2226.519,29.8,
1499,1,SBT2050,2,4,,4,25623,3.05265,-2.9362,2733.711,2393.706,30.6,
1499,1,SBT2050,2,4,,4,25828,2.88659,-2.9361,2733.711,2560.893,31.6,
1499,1,SBT2050,2,4,,4,26033,2.49967,-2.8303,2733.711,2728.015,33.9,
1499,1,SBT2050,2,4,,4,26238,2.49973,-1.2218,2733.711,2834.772,33.8,
1499,1,SBT2050,2,4,,4,26443,2.49981,-0.6292,2733.711,2884.721,31,
1499,1,SBT2050,2,4,,4,26648,2.49979,-0.40181,2733.711,2913.171,28.9,
1499,1,SBT2050,2,4,,4,26853,2.49997,-0.29244,2733.711,2932.655,27.6,
1499,1,SBT2050,2,4,,4,27058,2.499886,-0.22276,2733.711,2947.205,26.9,
1499,1,SBT2050,2,4,,4,27263,2.49998,-0.17373,2733.711,2958.413,26.4,
1499,1,SBT2050,2,4,,4,27468,2.49983,-0.1389,2733.711,2967.269,26,
1499,1,SBT2050,2,4,,4,27673,2.49999,-0.11252,2733.711,2974.397,25.9,
1499,1,SBT2050,2,4,,4,27878,2.49978,-0.0911,2733.711,2980.176,25.6,
1499,1,SBT2050,2,4,,4,28083,2.500029,-0.07443,2733.711,2984.879,25.5,
1499,1,SBT2050,2,4,,4,28288,2.49992,-0.06129,2733.711,2988.731,25.4,
1499,1,SBT2050,2,4,,4,28493,2.50008,-0.05101,2733.711,2991.923,25.3,
1499,1,SBT2050,2,4,,4,28698,2.50008,-0.042411,2733.711,2994.578,25.3,
1499,1,SBT2050,2,4,,4,28903,2.49999,-0.035006,2733.711,2996.78,25.2,
1499,1,SBT2050,2,4,,4,29108,2.50009,-0.028632,2733.711,2998.588,25.2,
1499,1,SBT2050,2,4,,4,29313,2.500053,-0.023401,2733.711,3000.067,25.2,
1499,1,SBT2050,2,4,,4,29518,2.49993,-0.018935,2733.711,3001.273,25.2,
1499,1,SBT2050,2,4,,4,29723,2.500041,-0.015669,2733.711,3002.255,25.1,
1499,1,SBT2050,2,4,,4,29928,2.50002,-0.012775,2733.711,3003.059,25.1,
1499,1,SBT2050,2,4,,4,30133,2.499886,-0.010404,2733.711,3003.721,25.1,
1499,1,SBT2050,2,4,,5,30337,2.58009,0,2733.711,3003.815,25,
1499,1,SBT2050,2,4,,5,30542,2.634864,0,2733.711,3003.815,25.1,
1499,1,SBT2050,2,4,,5,30747,2.670596,0,2733.711,3003.815,25.1,
1499,1,SBT2050,2,4,,5,30952,2.696014,0,2733.711,3003.815,25,
1499,1,SBT2050,2,4,,5,31157,2.714863,0,2733.711,3003.815,25,
1499,1,SBT2050,2,4,,5,31362,2.73012,0,2733.711,3003.815,25.1,
1499,1,SBT2050,2,4,,5,31567,2.74325,0,2733.711,3003.815,25.1,
1499,1,SBT2050,2,4,,5,31772,2.75364,0,2733.711,3003.815,25,
1499,1,SBT2050,2,4,,5,31965.69,2.76243,-9.9E-05,2733.711,3003.815,,