File: 1C/Test1439.csv
Request Year:,2018,,,,,,,,,,,,
Test:,1439,,,,,,,,,,,,
Test Description:,,,,,,,,,,,,,
TestRegime Name:,Aging_Performance,,,,,,,,,,,,
TestRegime Suffix:,SHP_LC,,,,,,,,,,,,
TestRegime CellSize:,18650,,,,,,,,,,,,
TestRegime Version:,1,,,,,,,,,,,,
Number Of Cells:,1,,,,,,,,,,,,
LotID:,,,,,,,,,,,,,
Lot Description:,,,,,,,,,,,,,
Date Made:,1/21/2003 12:00 AM,,,,,,,,,,,,
Origin:,Other,,,,,,,,,,,,
Requestor:,Admin,,,,,,,,,,,,
Product ID:,Default product,,,,,,,,,,,,
Storage Temp:,R.T./AMB,,,,,,,,,,,,
Storage Delay:,0 days,,,,,,,,,,,,
Test Temp:,R.T./AMB,,,,,,,,,,,,
Start Time:,3/31/2018 1:14 PM,,,,,,,,,,,,
End Time:,3/31/2018 8:05 PM,,,,,,,,,,,,
Operator Instructions:,,,,,,,,,,,,,
Test,Cell,Rack,Shelf,Position,Cell ID,Step,Total Time (Seconds),Voltage (V),Current (A),Charge Capacity (mAh),Discharge Capacity (mAh),TC1 (Â°C),
1439,1,SBT2050,2,4,,0,1,3.338543,0,0,0,24.4,
1439,1,SBT2050,2,4,,0,160,3.33852,0,0,0,24.7,
1439,1,SBT2050,2,4,,1,319,2.56415,-2.9359,0,15.494,25.2,
1439,1,SBT2050,2,4,,1,478,2.49989,-1.0768,0,81.686,28.4,
1439,1,SBT2050,2,4,,1,637,2.49965,-0.687,0,119.696,28.5,
1439,1,SBT2050,2,4,,1,796,2.49986,-0.46505,0,144.749,27.9,
1439,1,SBT2050,2,4,,1,955,2.49986,-0.32822,0,162.04,27.2,
1439,1,SBT2050,2,4,,1,1114,2.49999,-0.23854,0,174.435,26.4,
1439,1,SBT2050,2,4,,1,1273,2.49969,-0.1764,0,183.516,25.9,
1439,1,SBT2050,2,4,,1,1432,2.49993,-0.13017,0,190.249,25.5,
1439,1,SBT2050,2,4,,1,1591,2.49975,-0.09191,0,195.117,25.4,
1439,1,SBT2050,2,4,,1,1750,2.49986,-0.06247,0,198.501,25.3,
1439,1,SBT2050,2,4,,1,1909,2.49998,-0.040211,0,200.735,25.3,
1439,1,SBT2050,2,4,,1,2068,2.50005,-0.026206,0,202.172,25.2,
1439,1,SBT2050,2,4,,1,2227,2.49998,-0.018333,0,203.135,25.2,
1439,1,SBT2050,2,4,,1,2386,2.50005,-0.014533,0,203.854,25.2,
1439,1,SBT2050,2,4,,1,2545,2.5,-0.012552,0,204.449,25.2,
1439,1,SBT2050,2,4,,1,2704,2.499868,-0.011061,0,204.973,25.2,
1439,1,SBT2050,2,4,,2,2862,3.1553,2.9363,9.364,205.415,25.3,
1439,1,SBT2050,2,4,,2,3021,3.59907,2.9361,139.036,205.415,26.5,
1439,1,SBT2050,2,4,,2,3180,3.63694,2.9357,268.707,205.415,27.8,
1439,1,SBT2050,2,4,,2,3339,3.670428,2.9359,398.378,205.415,28.2,
1439,1,SBT2050,2,4,,2,3498,3.69482,2.9361,528.049,205.415,28.2,
1439,1,SBT2050,2,4,,2,3657,3.71905,2.9365,657.721,205.415,28.2,
1439,1,SBT2050,2,4,,2,3816,3.74636,2.9357,787.393,205.415,28.3,
1439,1,SBT2050,2,4,,2,3975,3.77372,2.9363,917.064,205.415,28.5,
1439,1,SBT2050,2,4,,2,4134,3.80379,2.9357,1046.736,205.415,28.4,
1439,1,SBT2050,2,4,,2,4293,3.83675,2.936,1176.407,205.415,28.3,
1439,1,SBT2050,2,4,,2,4452,3.87428,2.9363,1306.078,205.415,28.5,
1439,1,SBT2050,2,4,,2,4611,3.91642,2.9357,1435.75,205.415,28.6,
1439,1,SBT2050,2,4,,2,4770,3.961418,2.9363,1565.422,205.415,28.8,
1439,1,SBT2050,2,4,,2,4929,4.00755,2.9353,1695.093,205.415,28.8,
1439,1,SBT2050,2,4,,2,5088,4.05389,2.9356,1824.764,205.415,28.9,
1439,1,SBT2050,2,4,,2,5247,4.10106,2.9361,1954.435,205.415,29.1,
1439,1,SBT2050,2,4,,2,5406,4.14955,2.9358,2084.106,205.415,29.2,
1439,1,SBT2050,2,4,,2,5565,4.15001,2.2325,2196.86,205.415,28.9,
1439,1,SBT2050,2,4,,2,5724,4.15009,1.7227,2283.65,205.415,28.3,
1439,1,SBT2050,2,4,,2,5883,4.150034,1.3481,2350.926,205.415,27.6,
1439,1,SBT2050,2,4,,2,6042,4.15014,1.0748,2404.005,205.415,27,
1439,1,SBT2050,2,4,,2,6201,4.150034,0.882,2446.976,205.415,26.6,
1439,1,SBT2050,2,4,,2,6360,4.15001,0.7364,2482.55,205.415,26.2,
1439,1,SBT2050,2,4,,2,6519,4.15021,0.6264,2512.587,205.415,26,
1439,1,SBT2050,2,4,,2,6678,4.1502,0.5429,2538.368,205.415,25.8,
1439,1,SBT2050,2,4,,2,6837,4.14999,0.47492,2560.822,205.415,25.7,
1439,1,SBT2050,2,4,,2,6996,4.15009,0.42213,2580.543,205.415,25.6,
1439,1,SBT2050,2,4,,2,7155,4.15009,0.37421,2598.077,205.415,25.4,
1439,1,SBT2050,2,4,,2,7314,4.150058,0.3353,2613.737,205.415,25.4,
1439,1,SBT2050,2,4,,2,7473,4.150034,0.30213,2627.805,205.415,25.3,
1439,1,SBT2050,2,4,,2,7632,4.150046,0.27342,2640.525,205.415,25.3,
1439,1,SBT2050,2,4,,2,7791,4.15011,0.24827,2652.051,205.415,25.2,
1439,1,SBT2050,2,4,,2,7950,4.15001,0.227,2662.529,205.415,25.2,
1439,1,SBT2050,2,4,,2,8109,4.15008,0.2055,2672.063,205.415,25.2,
1439,1,SBT2050,2,4,,2,8268,4.15018,0.18946,2680.786,205.415,25.2,
1439,1,SBT2050,2,4,,2,8427,4.15014,0.172,2688.762,205.415,25.1,
1439,1,SBT2050,2,4,,2,8586,4.150058,0.15746,2696.058,205.415,25.1,
1439,1,SBT2050,2,4,,2,8745,4.15012,0.14577,2702.764,205.415,25.1,
1439,1,SBT2050,2,4,,2,8904,4.15009,0.13299,2708.899,205.415,25.1,
1439,1,SBT2050,2,4,,2,9063,4.15009,0.12255,2714.554,205.415,25.1,
1439,1,SBT2050,2,4,,2,9222,4.14997,0.11262,2719.754,205.415,25.1,
1439,1,SBT2050,2,4,,2,9381,4.14988,0.10375,2724.521,205.415,25.1,
1439,1,SBT2050,2,4,,2,9540,4.15001,0.09588,2728.926,205.415,25.1,
1439,1,SBT2050,2,4,,2,9699,4.1498,0.08832,2732.993,205.415,25,
1439,1,SBT2050,2,4,,2,9858,4.15007,0.08228,2736.759,205.415,25.1,
1439,1,SBT2050,2,4,,2,10017,4.14994,0.07569,2740.223,205.415,25,
1439,1,SBT2050,2,4,,2,10176,4.14995,0.07128,2743.452,205.415,25,
1439,1,SBT2050,2,4,,2,10335,4.15009,0.06465,2746.443,205.415,25.1,
1439,1,SBT2050,2,4,,2,10494,4.14997,0.06141,2749.213,205.415,25,
1439,1,SBT2050,2,4,,2,10653,4.15021,0.05618,2751.803,205.415,25,
1439,1,SBT2050,2,4,,2,10812,4.1498,0.05227,2754.204,205.415,25,
1439,1,SBT2050,2,4,,2,10971,4.1499,0.04942,2756.44,205.415,25,
1439,1,SBT2050,2,4,,2,11130,4.14997,0.045715,2758.512,205.415,25,
1439,1,SBT2050,2,4,,2,11289,4.14996,0.042936,2760.47,205.415,25,
1439,1,SBT2050,2,4,,2,11448,4.14989,0.039915,2762.292,205.415,25,
1439,1,SBT2050,2,4,,2,11607,4.1497,0.037759,2763.991,205.415,25,
1439,1,SBT2050,2,4,,2,11766,4.15039,0.034736,2765.597,205.415,25,
1439,1,SBT2050,2,4,,2,11925,4.1499,0.033351,2767.099,205.415,25,
1439,1,SBT2050,2,4,,2,12084,4.150296,0.030935,2768.514,205.415,25,
1439,1,SBT2050,2,4,,2,12243,4.14993,0.029142,2769.842,205.415,25,
1439,1,SBT2050,2,4,,2,12402,4.14978,0.026719,2771.088,205.415,25,
1439,1,SBT2050,2,4,,2,12561,4.15021,0.02586,2772.258,205.415,25,
1439,1,SBT2050,2,4,,2,12720,4.14996,0.023894,2773.368,205.415,25,
1439,1,SBT2050,2,4,,2,12879,4.15008,0.023862,2774.421,205.415,25,
1439,1,SBT2050,2,4,,2,13038,4.14982,0.02121,2775.406,205.415,25,
1439,1,SBT2050,2,4,,2,13197,4.15011,0.020004,2776.321,205.415,25,
1439,1,SBT2050,2,4,,2,13356,4.14996,0.018589,2777.194,205.415,25,
1439,1,SBT2050,2,4,,2,13515,4.150034,0.018084,2778.016,205.415,25,
1439,1,SBT2050,2,4,,2,13674,4.15,0.01691,2778.812,205.415,25,
1439,1,SBT2050,2,4,,2,13833,4.14986,0.016828,2779.566,205.415,25,
1439,1,SBT2050,2,4,,2,13992,4.15011,0.01557,2780.294,205.415,25,
1439,1,SBT2050,2,4,,2,14151,4.14995,0.014546,2780.966,205.415,25,
1439,1,SBT2050,2,4,,2,14310,4.15013,0.014304,2781.605,205.415,25.1,
1439,1,SBT2050,2,4,,2,14469,4.15014,0.013934,2782.211,205.415,25,
1439,1,SBT2050,2,4,,2,14628,4.14994,0.012887,2782.795,205.415,25.1,
1439,1,SBT2050,2,4,,2,14787,4.150058,0.011759,2783.354,205.415,25,
1439,1,SBT2050,2,4,,2,14946,4.150046,0.012593,2783.886,205.415,25,
1439,1,SBT2050,2,4,,2,15105,4.15015,0.011498,2784.398,205.415,25,
1439,1,SBT2050,2,4,,2,15264,4.150022,0.010993,2784.887,205.415,25,
1439,1,SBT2050,2,4,,3,15422,4.14794,0,2785.114,205.415,25,
1439,1,SBT2050,2,4,,3,15581,4.1474,0,2785.114,205.415,25,
1439,1,SBT2050,2,4,,3,15740,4.147152,0,2785.114,205.415,25,
1439,1,SBT2050,2,4,,3,15899,4.14701,0,2785.114,205.415,25,
1439,1,SBT2050,2,4,,3,16058,4.14665,0,2785.114,205.415,25,
1439,1,SBT2050,2,4,,3,16217,4.14669,0,2785.114,205.415,25,
1439,1,SBT2050,2,4,,3,16376,4.14639,0,2785.114,205.415,25,
1439,1,SBT2050,2,4,,3,16535,4.14603,0,2785.114,205.415,25,
1439,1,SBT2050,2,4,,3,16694,4.14585,0,2785.114,205.415,25,
1439,1,SBT2050,2,4,,3,16853,4.14599,0,2785.114,205.415,25.1,
1439,1,SBT2050,2,4,,3,17012,4.14578,0,2785.114,205.415,25,
1439,1,SBT2050,2,4,,4,17170,3.89181,-2.936,2785.114,228.494,25.2,
1439,1,SBT2050,2,4,,4,17329,3.82857,-2.9359,2785.114,358.166,26.7,
1439,1,SBT2050,2,4,,4,17488,3.80309,-2.9356,2785.114,487.837,27.5,
1439,1,SBT2050,2,4,,4,17647,3.768002,-2.9359,2785.114,617.508,27.8,
1439,1,SBT2050,2,4,,4,17806,3.72888,-2.9365,2785.114,747.18,27.8,
1439,1,SBT2050,2,4,,4,17965,3.68839,-2.9361,2785.114,876.852,27.7,
1439,1,SBT2050,2,4,,4,18124,3.64704,-2.9362,2785.114,1006.523,27.7,
1439,1,SBT2050,2,4,,4,18283,3.6028,-2.9361,2785.114,1136.195,27.8,
1439,1,SBT2050,2,4,,4,18442,3.55657,-2.9358,2785.114,1265.866,27.8,
1439,1,SBT2050,2,4,,4,18601,3.51109,-2.9362,2785.114,1395.538,27.9,
1439,1,SBT2050,2,4,,4,18760,3.467046,-2.936,2785.114,1525.209,28,
1439,1,SBT2050,2,4,,4,18919,3.42692,-2.9362,2785.114,1654.881,28,
1439,1,SBT2050,2,4,,4,19078,3.38874,-2.936,2785.114,1784.552,28.1,
1439,1,SBT2050,2,4,,4,19237,3.3503,-2.9365,2785.114,1914.224,28.3,
1439,1,SBT2050,2,4,,4,19396,3.30901,-2.936,2785.114,2043.895,28.5,
1439,1,SBT2050,2,4,,4,19555,3.25981,-2.9359,2785.114,2173.567,28.6,
1439,1,SBT2050,2,4,,4,19714,3.19739,-2.9362,2785.114,2303.238,29,
1439,1,SBT2050,2,4,,4,19873,3.11119,-2.9363,2785.114,2432.91,29.5,
1439,1,SBT2050,2,4,,4,20032,2.98251,-2.9358,2785.114,2562.581,30.3,
1439,1,SBT2050,2,4,,4,20191,2.75802,-2.9356,2785.114,2692.253,31.7,
1439,1,SBT2050,2,4,,4,20350,2.49959,-2.1973,2785.114,2814.718,34.1,
1439,1,SBT2050,2,4,,4,20509,2.499819,-1.1826,2785.114,2887.19,33.4,
1439,1,SBT2050,2,4,,4,20668,2.49972,-0.6563,2785.114,2926.452,31.3,
1439,1,SBT2050,2,4,,4,20827,2.4998,-0.39072,2785.114,2948.987,29.4,
1439,1,SBT2050,2,4,,4,20986,2.49975,-0.24418,2785.114,2962.664,27.9,
1439,1,SBT2050,2,4,,4,21145,2.4999,-0.15917,2785.114,2971.426,26.9,
1439,1,SBT2050,2,4,,4,21304,2.49976,-0.10361,2785.114,2977.135,26.3,
1439,1,SBT2050,2,4,,4,21463,2.4999,-0.0658,2785.114,2980.82,25.8,
1439,1,SBT2050,2,4,,4,21622,2.49989,-0.040777,2785.114,2983.136,25.5,
1439,1,SBT2050,2,4,,4,21781,2.49994,-0.026547,2785.114,2984.591,25.4,
1439,1,SBT2050,2,4,,4,21940,2.4999,-0.019219,2785.114,2985.584,25.3,
1439,1,SBT2050,2,4,,4,22099,2.50011,-0.015757,2785.114,2986.345,25.2,
1439,1,SBT2050,2,4,,4,22258,2.499831,-0.013528,2785.114,2986.988,25.2,
1439,1,SBT2050,2,4,,4,22417,2.49985,-0.012382,2785.114,2987.563,25.1,
1439,1,SBT2050,2,4,,4,22576,2.50008,-0.011535,2785.114,2988.09,25.1,
1439,1,SBT2050,2,4,,4,22735,2.49994,-0.010624,2785.114,2988.579,25.1,
1439,1,SBT2050,2,4,,5,22893,2.51298,0,2785.114,2988.996,25.1,
1439,1,SBT2050,2,4,,5,23052,2.59106,0,2785.114,2988.996,25.1,
1439,1,SBT2050,2,4,,5,23211,2.64446,0,2785.114,2988.996,25,
1439,1,SBT2050,2,4,,5,23370,2.6824,0,2785.114,2988.996,25.1,
1439,1,SBT2050,2,4,,5,23529,2.71017,0,2785.114,2988.996,25,
1439,1,SBT2050,2,4,,5,23688,2.7318,0,2785.114,2988.996,25.1,
1439,1,SBT2050,2,4,,5,23847,2.74864,0,2785.114,2988.996,25.1,
1439,1,SBT2050,2,4,,5,24006,2.76188,0,2785.114,2988.996,25.1,
1439,1,SBT2050,2,4,,5,24165,2.772566,0,2785.114,2988.996,25.1,
1439,1,SBT2050,2,4,,5,24324,2.781556,0,2785.114,2988.996,25.1,
1439,1,SBT2050,2,4,,5,24483,2.78941,0,2785.114,2988.996,25,
1439,1,SBT2050,2,4,,5,24642,2.79613,0,2785.114,2988.996,25,
1439,1,SBT2050,2,4,,5,24679.416,2.797507,-0.000101,2785.114,2988.996,,