File: 1C/Test1561.csv
Request Year:,2018,,,,,,,,,,,,
Test:,1561,,,,,,,,,,,,
Test Description:,,,,,,,,,,,,,
TestRegime Name:,Aging_Performance,,,,,,,,,,,,
TestRegime Suffix:,SHP_LC,,,,,,,,,,,,
TestRegime CellSize:,18650,,,,,,,,,,,,
TestRegime Version:,1,,,,,,,,,,,,
Number Of Cells:,1,,,,,,,,,,,,
LotID:,,,,,,,,,,,,,
Lot Description:,,,,,,,,,,,,,
Date Made:,1/21/2003 12:00 AM,,,,,,,,,,,,
Origin:,Other,,,,,,,,,,,,
Requestor:,Admin,,,,,,,,,,,,
Product ID:,Default product,,,,,,,,,,,,
Storage Temp:,R.T./AMB,,,,,,,,,,,,
Storage Delay:,0 days,,,,,,,,,,,,
Test Temp:,R.T./AMB,,,,,,,,,,,,
Start Time:,4/26/2018 8:27 PM,,,,,,,,,,,,
End Time:,4/27/2018 7:41 AM,,,,,,,,,,,,
Operator Instructions:,,,,,,,,,,,,,
Test,Cell,Rack,Shelf,Position,Cell ID,Step,Total Time (Seconds),Voltage (V),Current (A),Charge Capacity (mAh),Discharge Capacity (mAh),TC1 (Â°C),
1561,1,SBT2050,2,4,,0,1,3.36273,0,0,0,24.7,
1561,1,SBT2050,2,4,,0,266,3.3629,0,0,0,25.1,
1561,1,SBT2050,2,4,,1,531,2.49988,-0.9838,0,107.714,29,
1561,1,SBT2050,2,4,,1,796,2.49986,-0.5069,0,159.38,28.3,
1561,1,SBT2050,2,4,,1,1061,2.49997,-0.3274,0,189.19,27.4,
1561,1,SBT2050,2,4,,1,1326,2.49996,-0.23845,0,209.691,26.7,
1561,1,SBT2050,2,4,,1,1591,2.50002,-0.18774,0,225.227,26.3,
1561,1,SBT2050,2,4,,1,1856,2.49986,-0.15445,0,237.754,26.2,
1561,1,SBT2050,2,4,,1,2121,2.499792,-0.13006,0,248.188,26,
1561,1,SBT2050,2,4,,1,2386,2.4999,-0.11113,0,257.032,25.9,
1561,1,SBT2050,2,4,,1,2651,2.49989,-0.09577,0,264.625,25.8,
1561,1,SBT2050,2,4,,1,2916,2.50013,-0.08309,0,271.194,25.7,
1561,1,SBT2050,2,4,,1,3181,2.49973,-0.07164,0,276.889,25.6,
1561,1,SBT2050,2,4,,1,3446,2.499947,-0.06226,0,281.817,25.5,
1561,1,SBT2050,2,4,,1,3711,2.4999,-0.05383,0,286.085,25.5,
1561,1,SBT2050,2,4,,1,3976,2.50001,-0.046686,0,289.788,25.4,
1561,1,SBT2050,2,4,,1,4241,2.49996,-0.040868,0,293.018,25.4,
1561,1,SBT2050,2,4,,1,4506,2.49973,-0.03607,0,295.856,25.4,
1561,1,SBT2050,2,4,,1,4771,2.49982,-0.031429,0,298.344,25.4,
1561,1,SBT2050,2,4,,1,5036,2.49973,-0.027844,0,300.521,25.4,
1561,1,SBT2050,2,4,,1,5301,2.499923,-0.024666,0,302.449,25.4,
1561,1,SBT2050,2,4,,1,5566,2.499792,-0.02188,0,304.171,25.3,
1561,1,SBT2050,2,4,,1,5831,2.50007,-0.01988,0,305.711,25.3,
1561,1,SBT2050,2,4,,1,6096,2.49991,-0.017705,0,307.091,25.3,
1561,1,SBT2050,2,4,,1,6361,2.50002,-0.015993,0,308.329,25.3,
1561,1,SBT2050,2,4,,1,6626,2.5001,-0.014274,0,309.439,25.3,
1561,1,SBT2050,2,4,,1,6891,2.49988,-0.012788,0,310.436,25.3,
1561,1,SBT2050,2,4,,1,7156,2.50001,-0.011525,0,311.335,25.2,
1561,1,SBT2050,2,4,,1,7421,2.50002,-0.010501,0,312.146,25.3,
1561,1,SBT2050,2,4,,2,7685,3.66336,2.9356,168.097,312.313,27.1,
1561,1,SBT2050,2,4,,2,7950,3.737,2.9361,384.216,312.313,29,
1561,1,SBT2050,2,4,,2,8215,3.78043,2.936,600.335,312.313,29.5,
1561,1,SBT2050,2,4,,2,8480,3.82823,2.9355,816.454,312.313,29.6,
1561,1,SBT2050,2,4,,2,8745,3.88009,2.9358,1032.574,312.313,29.6,
1561,1,SBT2050,2,4,,2,9010,3.94437,2.9357,1248.693,312.313,29.8,
1561,1,SBT2050,2,4,,2,9275,4.01966,2.9362,1464.811,312.313,30,
1561,1,SBT2050,2,4,,2,9540,4.10421,2.9362,1680.93,312.313,30.3,
1561,1,SBT2050,2,4,,2,9805,4.15001,2.4216,1886.728,312.313,30.2,
1561,1,SBT2050,2,4,,2,10070,4.15019,1.7133,2037.174,312.313,29,
1561,1,SBT2050,2,4,,2,10335,4.14996,1.2401,2144.624,312.313,27.8,
1561,1,SBT2050,2,4,,2,10600,4.14995,0.9311,2223.812,312.313,27,
1561,1,SBT2050,2,4,,2,10865,4.150042,0.7207,2284.085,312.313,26.4,
1561,1,SBT2050,2,4,,2,11130,4.14996,0.5752,2331.452,312.313,26.1,
1561,1,SBT2050,2,4,,2,11395,4.150078,0.46988,2369.723,312.313,25.9,
1561,1,SBT2050,2,4,,2,11660,4.14997,0.3932,2401.395,312.313,25.7,
1561,1,SBT2050,2,4,,2,11925,4.1499,0.33509,2428.11,312.313,25.6,
1561,1,SBT2050,2,4,,2,12190,4.1501,0.28878,2450.994,312.313,25.5,
1561,1,SBT2050,2,4,,2,12455,4.15016,0.25191,2470.854,312.313,25.4,
1561,1,SBT2050,2,4,,2,12720,4.14995,0.22215,2488.292,312.313,25.4,
1561,1,SBT2050,2,4,,2,12985,4.15011,0.19757,2503.738,312.313,25.4,
1561,1,SBT2050,2,4,,2,13250,4.14996,0.17754,2517.532,312.313,25.3,
1561,1,SBT2050,2,4,,2,13515,4.15023,0.1595,2529.912,312.313,25.4,
1561,1,SBT2050,2,4,,2,13780,4.150078,0.14465,2541.08,312.313,25.3,
1561,1,SBT2050,2,4,,2,14045,4.15016,0.1312,2551.217,312.313,25.2,
1561,1,SBT2050,2,4,,2,14310,4.14986,0.12048,2560.43,312.313,25.2,
1561,1,SBT2050,2,4,,2,14575,4.15011,0.10913,2568.847,312.313,25.2,
1561,1,SBT2050,2,4,,2,14840,4.14993,0.10056,2576.56,312.313,25.2,
1561,1,SBT2050,2,4,,2,15105,4.15021,0.09227,2583.671,312.313,25.2,
1561,1,SBT2050,2,4,,2,15370,4.14989,0.08491,2590.202,312.313,25.2,
1561,1,SBT2050,2,4,,2,15635,4.14989,0.07903,2596.242,312.313,25.2,
1561,1,SBT2050,2,4,,2,15900,4.15002,0.07367,2601.854,312.313,25.2,
1561,1,SBT2050,2,4,,2,16165,4.15026,0.06793,2607.06,312.313,25.1,
1561,1,SBT2050,2,4,,2,16430,4.14986,0.06372,2611.914,312.313,25.2,
1561,1,SBT2050,2,4,,2,16695,4.15009,0.05954,2616.452,312.313,25.1,
1561,1,SBT2050,2,4,,2,16960,4.15013,0.05565,2620.707,312.313,25.1,
1561,1,SBT2050,2,4,,2,17225,4.14998,0.05235,2624.691,312.313,25.1,
1561,1,SBT2050,2,4,,2,17490,4.150066,0.04924,2628.436,312.313,25.1,
1561,1,SBT2050,2,4,,2,17755,4.150042,0.046351,2631.964,312.313,25.2,
1561,1,SBT2050,2,4,,2,18020,4.14986,0.043968,2635.291,312.313,25.2,
1561,1,SBT2050,2,4,,2,18285,4.15022,0.041543,2638.446,312.313,25.2,
1561,1,SBT2050,2,4,,2,18550,4.15021,0.039258,2641.434,312.313,25.2,
1561,1,SBT2050,2,4,,2,18815,4.15019,0.037745,2644.253,312.313,25.2,
1561,1,SBT2050,2,4,,2,19080,4.14978,0.035359,2646.928,312.313,25.1,
1561,1,SBT2050,2,4,,2,19345,4.1497,0.03343,2649.467,312.313,25.2,
1561,1,SBT2050,2,4,,2,19610,4.14986,0.032926,2651.893,312.313,25.2,
1561,1,SBT2050,2,4,,2,19875,4.14986,0.030912,2654.2,312.313,25.1,
1561,1,SBT2050,2,4,,2,20140,4.150078,0.028778,2656.388,312.313,25.1,
1561,1,SBT2050,2,4,,2,20405,4.14996,0.027924,2658.494,312.313,25.1,
1561,1,SBT2050,2,4,,2,20670,4.15001,0.026574,2660.496,312.313,25.1,
1561,1,SBT2050,2,4,,2,20935,4.15001,0.025078,2662.402,312.313,25.1,
1561,1,SBT2050,2,4,,2,21200,4.1499,0.024532,2664.232,312.313,25.1,
1561,1,SBT2050,2,4,,2,21465,4.1499,0.023116,2666.001,312.313,25.2,
1561,1,SBT2050,2,4,,2,21730,4.1502,0.022221,2667.68,312.313,25.1,
1561,1,SBT2050,2,4,,2,21995,4.14985,0.021306,2669.287,312.313,25.1,
1561,1,SBT2050,2,4,,2,22260,4.14989,0.02054,2670.828,312.313,25.1,
1561,1,SBT2050,2,4,,2,22525,4.14997,0.019893,2672.311,312.313,25.1,
1561,1,SBT2050,2,4,,2,22790,4.14992,0.018911,2673.729,312.313,25.1,
1561,1,SBT2050,2,4,,2,23055,4.14998,0.018232,2675.092,312.313,25.1,
1561,1,SBT2050,2,4,,2,23320,4.14988,0.017922,2676.402,312.313,25.1,
1561,1,SBT2050,2,4,,2,23585,4.14991,0.01677,2677.66,312.313,25.1,
1561,1,SBT2050,2,4,,2,23850,4.149792,0.016278,2678.879,312.313,25.1,
1561,1,SBT2050,2,4,,2,24115,4.14991,0.015788,2680.049,312.313,25.1,
1561,1,SBT2050,2,4,,2,24380,4.14986,0.015123,2681.181,312.313,25.1,
1561,1,SBT2050,2,4,,2,24645,4.14995,0.014766,2682.264,312.313,25.1,
1561,1,SBT2050,2,4,,2,24910,4.1501,0.014314,2683.331,312.313,25.1,
1561,1,SBT2050,2,4,,2,25175,4.15002,0.013319,2684.344,312.313,25.1,
1561,1,SBT2050,2,4,,2,25440,4.14992,0.013107,2685.326,312.313,25.1,
1561,1,SBT2050,2,4,,2,25705,4.14999,0.012807,2686.269,312.313,25.1,
1561,1,SBT2050,2,4,,2,25970,4.14971,0.012512,2687.194,312.313,25.1,
1561,1,SBT2050,2,4,,2,26235,4.15022,0.011241,2688.084,312.313,25.1,
1561,1,SBT2050,2,4,,2,26500,4.15023,0.011971,2688.94,312.313,25.1,
1561,1,SBT2050,2,4,,2,26765,4.15014,0.010968,2689.782,312.313,25.1,
1561,1,SBT2050,2,4,,2,27030,4.15019,0.010723,2690.587,312.313,25.1,
1561,1,SBT2050,2,4,,3,27294,4.14776,0,2691.257,312.313,25.1,
1561,1,SBT2050,2,4,,3,27559,4.14566,0,2691.257,312.313,25.1,
1561,1,SBT2050,2,4,,3,27824,4.14462,0,2691.257,312.313,25.1,
1561,1,SBT2050,2,4,,3,28089,4.14412,0,2691.257,312.313,25.1,
1561,1,SBT2050,2,4,,3,28354,4.14302,0,2691.257,312.313,25.1,
1561,1,SBT2050,2,4,,3,28619,4.14264,0,2691.257,312.313,25.1,
1561,1,SBT2050,2,4,,3,28884,4.142496,0,2691.257,312.313,25.1,
1561,1,SBT2050,2,4,,4,29148,3.738066,-2.9359,2691.257,388.03,26.3,
1561,1,SBT2050,2,4,,4,29413,3.68207,-2.9362,2691.257,604.149,28.5,
1561,1,SBT2050,2,4,,4,29678,3.6257,-2.9363,2691.257,820.268,29.1,
1561,1,SBT2050,2,4,,4,29943,3.558342,-2.9358,2691.257,1036.388,29.1,
1561,1,SBT2050,2,4,,4,30208,3.486566,-2.9366,2691.257,1252.507,29.2,
1561,1,SBT2050,2,4,,4,30473,3.41348,-2.9363,2691.257,1468.626,29.3,
1561,1,SBT2050,2,4,,4,30738,3.33957,-2.9358,2691.257,1684.745,29.4,
1561,1,SBT2050,2,4,,4,31003,3.259522,-2.936,2691.257,1900.865,29.6,
1561,1,SBT2050,2,4,,4,31268,3.16467,-2.9359,2691.257,2116.984,30.3,
1561,1,SBT2050,2,4,,4,31533,3.03949,-2.9365,2691.257,2333.103,31.1,
1561,1,SBT2050,2,4,,4,31798,2.833557,-2.9358,2691.257,2549.222,32.5,
1561,1,SBT2050,2,4,,4,32063,2.49981,-1.7132,2691.257,2742.442,34.6,
1561,1,SBT2050,2,4,,4,32328,2.49978,-0.6956,2691.257,2822.987,31.5,
1561,1,SBT2050,2,4,,4,32593,2.49992,-0.40143,2691.257,2861.553,28.9,
1561,1,SBT2050,2,4,,4,32858,2.50006,-0.27776,2691.257,2886.027,27.5,
1561,1,SBT2050,2,4,,4,33123,2.49997,-0.21278,2691.257,2903.86,26.7,
1561,1,SBT2050,2,4,,4,33388,2.49985,-0.17368,2691.257,2917.994,26.3,
1561,1,SBT2050,2,4,,4,33653,2.500015,-0.14617,2691.257,2929.723,26,
1561,1,SBT2050,2,4,,4,33918,2.49992,-0.1241,2691.257,2939.641,25.9,
1561,1,SBT2050,2,4,,4,34183,2.500003,-0.10555,2691.257,2948.064,25.8,
1561,1,SBT2050,2,4,,4,34448,2.49998,-0.08997,2691.257,2955.237,25.7,
1561,1,SBT2050,2,4,,4,34713,2.49997,-0.07745,2691.257,2961.388,25.6,
1561,1,SBT2050,2,4,,4,34978,2.50006,-0.06688,2691.257,2966.681,25.5,
1561,1,SBT2050,2,4,,4,35243,2.49999,-0.05746,2691.257,2971.241,25.5,
1561,1,SBT2050,2,4,,4,35508,2.49993,-0.04989,2691.257,2975.178,25.4,
1561,1,SBT2050,2,4,,4,35773,2.500003,-0.043237,2691.257,2978.592,25.4,
1561,1,SBT2050,2,4,,4,36038,2.49996,-0.037752,2691.257,2981.57,25.3,
1561,1,SBT2050,2,4,,4,36303,2.49993,-0.032661,2691.257,2984.172,25.3,
1561,1,SBT2050,2,4,,4,36568,2.50012,-0.028613,2691.257,2986.43,25.3,
1561,1,SBT2050,2,4,,4,36833,2.50006,-0.025022,2691.257,2988.396,25.3,
1561,1,SBT2050,2,4,,4,37098,2.49999,-0.021736,2691.257,2990.112,25.3,
1561,1,SBT2050,2,4,,4,37363,2.49999,-0.019104,2691.257,2991.607,25.2,
1561,1,SBT2050,2,4,,4,37628,2.50007,-0.016717,2691.257,2992.918,25.2,
1561,1,SBT2050,2,4,,4,37893,2.500015,-0.014658,2691.257,2994.062,25.2,
1561,1,SBT2050,2,4,,4,38158,2.500027,-0.012839,2691.257,2995.067,25.2,
1561,1,SBT2050,2,4,,4,38423,2.49998,-0.011268,2691.257,2995.952,25.2,
1561,1,SBT2050,2,4,,5,38687,2.52849,0,2691.257,2996.61,25.2,
1561,1,SBT2050,2,4,,5,38952,2.62582,0,2691.257,2996.61,25.1,
1561,1,SBT2050,2,4,,5,39217,2.68218,0,2691.257,2996.61,25.2,
1561,1,SBT2050,2,4,,5,39482,2.71781,0,2691.257,2996.61,25.2,
1561,1,SBT2050,2,4,,5,39747,2.741934,0,2691.257,2996.61,25.1,
1561,1,SBT2050,2,4,,5,40012,2.759,0,2691.257,2996.61,25.2,
1561,1,SBT2050,2,4,,5,40277,2.772039,0,2691.257,2996.61,25.1,
1561,1,SBT2050,2,4,,5,40444.167,2.77832,-9.9E-05,2691.257,2996.61,,