File: 1C/Test1443.csv
Request Year:,2018,,,,,,,,,,,,
Test:,1443,,,,,,,,,,,,
Test Description:,,,,,,,,,,,,,
TestRegime Name:,Aging_Performance,,,,,,,,,,,,
TestRegime Suffix:,SHP_LC,,,,,,,,,,,,
TestRegime CellSize:,18650,,,,,,,,,,,,
TestRegime Version:,1,,,,,,,,,,,,
Number Of Cells:,1,,,,,,,,,,,,
LotID:,,,,,,,,,,,,,
Lot Description:,,,,,,,,,,,,,
Date Made:,1/21/2003 12:00 AM,,,,,,,,,,,,
Origin:,Other,,,,,,,,,,,,
Requestor:,Admin,,,,,,,,,,,,
Product ID:,Default product,,,,,,,,,,,,
Storage Temp:,R.T./AMB,,,,,,,,,,,,
Storage Delay:,0 days,,,,,,,,,,,,
Test Temp:,R.T./AMB,,,,,,,,,,,,
Start Time:,4/4/2018 3:22 PM,,,,,,,,,,,,
End Time:,4/4/2018 11:18 PM,,,,,,,,,,,,
Operator Instructions:,,,,,,,,,,,,,
Test,Cell,Rack,Shelf,Position,Cell ID,Step,Total Time (Seconds),Voltage (V),Current (A),Charge Capacity (mAh),Discharge Capacity (mAh),TC1 (Â°C),
1443,1,SBT2050,2,4,,0,1,3.35099,0,0,0,25.1,
1443,1,SBT2050,2,4,,0,187,3.35109,0,0,0,25,
1443,1,SBT2050,2,4,,1,373,2.49974,-1.6536,0,47.183,27.1,
1443,1,SBT2050,2,4,,1,559,2.49981,-0.9437,0,111.129,28.8,
1443,1,SBT2050,2,4,,1,745,2.49998,-0.6057,0,150.32,28.6,
1443,1,SBT2050,2,4,,1,931,2.499944,-0.40785,0,176.052,27.8,
1443,1,SBT2050,2,4,,1,1117,2.49986,-0.29006,0,193.839,27,
1443,1,SBT2050,2,4,,1,1303,2.49985,-0.21782,0,206.833,26.5,
1443,1,SBT2050,2,4,,1,1489,2.49985,-0.1678,0,216.721,26,
1443,1,SBT2050,2,4,,1,1675,2.500099,-0.13135,0,224.403,25.8,
1443,1,SBT2050,2,4,,1,1861,2.49978,-0.10397,0,230.446,25.6,
1443,1,SBT2050,2,4,,1,2047,2.49984,-0.08254,0,235.239,25.4,
1443,1,SBT2050,2,4,,1,2233,2.49997,-0.06482,0,239.034,25.2,
1443,1,SBT2050,2,4,,1,2419,2.49987,-0.0503,0,241.993,25.2,
1443,1,SBT2050,2,4,,1,2605,2.499932,-0.038834,0,244.28,25.2,
1443,1,SBT2050,2,4,,1,2791,2.50004,-0.029905,0,246.047,25.1,
1443,1,SBT2050,2,4,,1,2977,2.50013,-0.022756,0,247.398,25,
1443,1,SBT2050,2,4,,1,3163,2.49998,-0.017167,0,248.423,25,
1443,1,SBT2050,2,4,,1,3349,2.50004,-0.013572,0,249.215,24.9,
1443,1,SBT2050,2,4,,1,3535,2.49997,-0.011176,0,249.849,24.9,
1443,1,SBT2050,2,4,,2,3720,3.53918,2.9361,73.449,250.129,25.5,
1443,1,SBT2050,2,4,,2,3906,3.654472,2.9359,225.139,250.129,27.3,
1443,1,SBT2050,2,4,,2,4092,3.69931,2.9357,376.83,250.129,28.3,
1443,1,SBT2050,2,4,,2,4278,3.72741,2.9357,528.52,250.129,28.7,
1443,1,SBT2050,2,4,,2,4464,3.757394,2.9356,680.211,250.129,28.8,
1443,1,SBT2050,2,4,,2,4650,3.790122,2.9359,831.901,250.129,28.7,
1443,1,SBT2050,2,4,,2,4836,3.82576,2.9361,983.592,250.129,28.6,
1443,1,SBT2050,2,4,,2,5022,3.86693,2.9357,1135.282,250.129,28.7,
1443,1,SBT2050,2,4,,2,5208,3.91521,2.9359,1286.973,250.129,28.9,
1443,1,SBT2050,2,4,,2,5394,3.967222,2.9361,1438.663,250.129,29.1,
1443,1,SBT2050,2,4,,2,5580,4.0217,2.9352,1590.353,250.129,29.2,
1443,1,SBT2050,2,4,,2,5766,4.07697,2.9362,1742.043,250.129,29.3,
1443,1,SBT2050,2,4,,2,5952,4.1329,2.9358,1893.734,250.129,29.5,
1443,1,SBT2050,2,4,,2,6138,4.15011,2.3932,2034.58,250.129,29.4,
1443,1,SBT2050,2,4,,2,6324,4.1499,1.8345,2143.166,250.129,28.7,
1443,1,SBT2050,2,4,,2,6510,4.15012,1.418,2226.574,250.129,27.9,
1443,1,SBT2050,2,4,,2,6696,4.150206,1.121,2291.779,250.129,27.2,
1443,1,SBT2050,2,4,,2,6882,4.15015,0.91,2344.014,250.129,26.6,
1443,1,SBT2050,2,4,,2,7068,4.15011,0.7537,2386.785,250.129,26.2,
1443,1,SBT2050,2,4,,2,7254,4.15009,0.6319,2422.45,250.129,26,
1443,1,SBT2050,2,4,,2,7440,4.14987,0.5383,2452.623,250.129,25.7,
1443,1,SBT2050,2,4,,2,7626,4.14992,0.46561,2478.475,250.129,25.5,
1443,1,SBT2050,2,4,,2,7812,4.15005,0.40458,2500.89,250.129,25.4,
1443,1,SBT2050,2,4,,2,7998,4.15034,0.357,2520.529,250.129,25.4,
1443,1,SBT2050,2,4,,2,8184,4.15028,0.31712,2537.904,250.129,25.3,
1443,1,SBT2050,2,4,,2,8370,4.14977,0.28382,2553.367,250.129,25.3,
1443,1,SBT2050,2,4,,2,8556,4.15027,0.25511,2567.264,250.129,25.1,
1443,1,SBT2050,2,4,,2,8742,4.15008,0.2314,2579.826,250.129,25.1,
1443,1,SBT2050,2,4,,2,8928,4.150206,0.21116,2591.264,250.129,25.1,
1443,1,SBT2050,2,4,,2,9114,4.14999,0.19345,2601.731,250.129,25.1,
1443,1,SBT2050,2,4,,2,9300,4.15027,0.17808,2611.318,250.129,25.1,
1443,1,SBT2050,2,4,,2,9486,4.149968,0.16407,2620.149,250.129,25,
1443,1,SBT2050,2,4,,2,9672,4.15017,0.15085,2628.277,250.129,25,
1443,1,SBT2050,2,4,,2,9858,4.14998,0.14012,2635.791,250.129,25.1,
1443,1,SBT2050,2,4,,2,10044,4.15,0.12951,2642.74,250.129,25,
1443,1,SBT2050,2,4,,2,10230,4.15004,0.1202,2649.167,250.129,25,
1443,1,SBT2050,2,4,,2,10416,4.15009,0.11034,2655.139,250.129,24.9,
1443,1,SBT2050,2,4,,2,10602,4.14975,0.10363,2660.677,250.129,25,
1443,1,SBT2050,2,4,,2,10788,4.15012,0.09606,2665.859,250.129,25,
1443,1,SBT2050,2,4,,2,10974,4.15016,0.08964,2670.668,250.129,25,
1443,1,SBT2050,2,4,,2,11160,4.149932,0.0838,2675.162,250.129,25,
1443,1,SBT2050,2,4,,2,11346,4.15,0.07854,2679.358,250.129,25,
1443,1,SBT2050,2,4,,2,11532,4.149944,0.07335,2683.272,250.129,25.1,
1443,1,SBT2050,2,4,,2,11718,4.15015,0.06885,2686.933,250.129,25,
1443,1,SBT2050,2,4,,2,11904,4.14975,0.0638,2690.36,250.129,25,
1443,1,SBT2050,2,4,,2,12090,4.15008,0.05919,2693.552,250.129,25,
1443,1,SBT2050,2,4,,2,12276,4.15008,0.05612,2696.526,250.129,24.9,
1443,1,SBT2050,2,4,,2,12462,4.14988,0.05248,2699.313,250.129,25,
1443,1,SBT2050,2,4,,2,12648,4.15003,0.04911,2701.947,250.129,25,
1443,1,SBT2050,2,4,,2,12834,4.149932,0.046045,2704.412,250.129,24.9,
1443,1,SBT2050,2,4,,2,13020,4.14981,0.043624,2706.724,250.129,25,
1443,1,SBT2050,2,4,,2,13206,4.150206,0.040915,2708.901,250.129,25,
1443,1,SBT2050,2,4,,2,13392,4.15005,0.038408,2710.954,250.129,25,
1443,1,SBT2050,2,4,,2,13578,4.14987,0.036774,2712.891,250.129,25,
1443,1,SBT2050,2,4,,2,13764,4.14981,0.034457,2714.716,250.129,25,
1443,1,SBT2050,2,4,,2,13950,4.1499,0.032153,2716.453,250.129,24.9,
1443,1,SBT2050,2,4,,2,14136,4.15003,0.030555,2718.072,250.129,24.9,
1443,1,SBT2050,2,4,,2,14322,4.1498,0.028987,2719.609,250.129,24.9,
1443,1,SBT2050,2,4,,2,14508,4.149956,0.027209,2721.073,250.129,24.9,
1443,1,SBT2050,2,4,,2,14694,4.15005,0.025912,2722.455,250.129,24.9,
1443,1,SBT2050,2,4,,2,14880,4.15004,0.02543,2723.786,250.129,24.9,
1443,1,SBT2050,2,4,,2,15066,4.15016,0.024092,2725.043,250.129,24.9,
1443,1,SBT2050,2,4,,2,15252,4.14999,0.022386,2726.23,250.129,24.9,
1443,1,SBT2050,2,4,,2,15438,4.14988,0.021887,2727.369,250.129,24.9,
1443,1,SBT2050,2,4,,2,15624,4.14999,0.020426,2728.448,250.129,24.9,
1443,1,SBT2050,2,4,,2,15810,4.149968,0.019812,2729.474,250.129,24.9,
1443,1,SBT2050,2,4,,2,15996,4.15011,0.018999,2730.454,250.129,24.8,
1443,1,SBT2050,2,4,,2,16182,4.1501,0.017585,2731.388,250.129,24.9,
1443,1,SBT2050,2,4,,2,16368,4.149968,0.016464,2732.271,250.129,24.9,
1443,1,SBT2050,2,4,,2,16554,4.1499,0.016101,2733.117,250.129,24.9,
1443,1,SBT2050,2,4,,2,16740,4.14969,0.016024,2733.935,250.129,24.9,
1443,1,SBT2050,2,4,,2,16926,4.15017,0.015349,2734.731,250.129,24.9,
1443,1,SBT2050,2,4,,2,17112,4.14986,0.014495,2735.478,250.129,24.9,
1443,1,SBT2050,2,4,,2,17298,4.15002,0.013336,2736.203,250.129,25,
1443,1,SBT2050,2,4,,2,17484,4.15013,0.013018,2736.883,250.129,24.9,
1443,1,SBT2050,2,4,,2,17670,4.15011,0.012783,2737.543,250.129,24.9,
1443,1,SBT2050,2,4,,2,17856,4.149968,0.01202,2738.18,250.129,24.9,
1443,1,SBT2050,2,4,,2,18042,4.1499,0.011821,2738.797,250.129,24.9,
1443,1,SBT2050,2,4,,2,18228,4.15005,0.011044,2739.383,250.129,24.9,
1443,1,SBT2050,2,4,,2,18414,4.15025,0.010626,2739.959,250.129,24.9,
1443,1,SBT2050,2,4,,2,18600,4.149968,0.010708,2740.51,250.129,24.9,
1443,1,SBT2050,2,4,,3,18785,4.14745,0,2740.579,250.129,24.9,
1443,1,SBT2050,2,4,,3,18971,4.14724,0,2740.579,250.129,24.9,
1443,1,SBT2050,2,4,,3,19157,4.14639,0,2740.579,250.129,25,
1443,1,SBT2050,2,4,,3,19343,4.14587,0,2740.579,250.129,24.9,
1443,1,SBT2050,2,4,,3,19529,4.14595,0,2740.579,250.129,24.9,
1443,1,SBT2050,2,4,,3,19715,4.1456,0,2740.579,250.129,24.9,
1443,1,SBT2050,2,4,,3,19901,4.145328,0,2740.579,250.129,24.9,
1443,1,SBT2050,2,4,,3,20087,4.14537,0,2740.579,250.129,24.9,
1443,1,SBT2050,2,4,,3,20273,4.14485,0,2740.579,250.129,24.9,
1443,1,SBT2050,2,4,,4,20458,3.84303,-2.936,2740.579,278.488,25.2,
1443,1,SBT2050,2,4,,4,20644,3.77468,-2.9359,2740.579,430.178,27.2,
1443,1,SBT2050,2,4,,4,20830,3.74438,-2.9358,2740.579,581.869,28,
1443,1,SBT2050,2,4,,4,21016,3.7038,-2.9358,2740.579,733.559,28.3,
1443,1,SBT2050,2,4,,4,21202,3.65665,-2.9355,2740.579,885.25,28.2,
1443,1,SBT2050,2,4,,4,21388,3.6069,-2.9358,2740.579,1036.941,28.1,
1443,1,SBT2050,2,4,,4,21574,3.55391,-2.9359,2740.579,1188.631,28.2,
1443,1,SBT2050,2,4,,4,21760,3.499736,-2.9364,2740.579,1340.321,28.3,
1443,1,SBT2050,2,4,,4,21946,3.4467,-2.9359,2740.579,1492.012,28.3,
1443,1,SBT2050,2,4,,4,22132,3.39635,-2.9361,2740.579,1643.702,28.4,
1443,1,SBT2050,2,4,,4,22318,3.347348,-2.936,2740.579,1795.393,28.5,
1443,1,SBT2050,2,4,,4,22504,3.294845,-2.9362,2740.579,1947.084,28.7,
1443,1,SBT2050,2,4,,4,22690,3.234452,-2.9365,2740.579,2098.774,29,
1443,1,SBT2050,2,4,,4,22876,3.1574,-2.9356,2740.579,2250.466,29.5,
1443,1,SBT2050,2,4,,4,23062,3.05086,-2.9361,2740.579,2402.156,30.3,
1443,1,SBT2050,2,4,,4,23248,2.88847,-2.9358,2740.579,2553.847,31.3,
1443,1,SBT2050,2,4,,4,23434,2.57533,-2.936,2740.579,2705.538,33.4,
1443,1,SBT2050,2,4,,4,23620,2.49993,-1.5082,2740.579,2818.716,34.3,
1443,1,SBT2050,2,4,,4,23806,2.49971,-0.8002,2740.579,2875.942,32,
1443,1,SBT2050,2,4,,4,23992,2.49971,-0.4765,2740.579,2907.808,29.6,
1443,1,SBT2050,2,4,,4,24178,2.49993,-0.32827,2740.579,2928.112,28,
1443,1,SBT2050,2,4,,4,24364,2.4998,-0.24705,2740.579,2942.821,27,
1443,1,SBT2050,2,4,,4,24550,2.49988,-0.19085,2740.579,2954.059,26.4,
1443,1,SBT2050,2,4,,4,24736,2.499903,-0.1481,2740.579,2962.768,26,
1443,1,SBT2050,2,4,,4,24922,2.49995,-0.11424,2740.579,2969.505,25.7,
1443,1,SBT2050,2,4,,4,25108,2.500034,-0.08889,2740.579,2974.718,25.5,
1443,1,SBT2050,2,4,,4,25294,2.5,-0.06876,2740.579,2978.766,25.3,
1443,1,SBT2050,2,4,,4,25480,2.49991,-0.05291,2740.579,2981.893,25.2,
1443,1,SBT2050,2,4,,4,25666,2.49995,-0.040354,2740.579,2984.288,25.2,
1443,1,SBT2050,2,4,,4,25852,2.49986,-0.030964,2740.579,2986.118,25.2,
1443,1,SBT2050,2,4,,4,26038,2.49997,-0.023871,2740.579,2987.526,25.2,
1443,1,SBT2050,2,4,,4,26224,2.50001,-0.018466,2740.579,2988.614,25.3,
1443,1,SBT2050,2,4,,4,26410,2.49984,-0.014509,2740.579,2989.461,25.3,
1443,1,SBT2050,2,4,,4,26596,2.50001,-0.01185,2740.579,2990.135,25.2,
1443,1,SBT2050,2,4,,5,26781,2.511853,0,2740.579,2990.657,25.2,
1443,1,SBT2050,2,4,,5,26967,2.59538,0,2740.579,2990.657,25,
1443,1,SBT2050,2,4,,5,27153,2.64923,0,2740.579,2990.657,24.9,
1443,1,SBT2050,2,4,,5,27339,2.68634,0,2740.579,2990.657,24.9,
1443,1,SBT2050,2,4,,5,27525,2.7136,0,2740.579,2990.657,24.8,
1443,1,SBT2050,2,4,,5,27711,2.73411,0,2740.579,2990.657,24.8,
1443,1,SBT2050,2,4,,5,27897,2.75018,0,2740.579,2990.657,24.8,
1443,1,SBT2050,2,4,,5,28083,2.76283,0,2740.579,2990.657,24.8,
1443,1,SBT2050,2,4,,5,28269,2.77335,0,2740.579,2990.657,24.8,
1443,1,SBT2050,2,4,,5,28455,2.7822,0,2740.579,2990.657,24.9,
1443,1,SBT2050,2,4,,5,28568.442,2.7869,-9.9E-05,2740.579,2990.657,,