File: 1C/Test1397.csv
Request Year:,2018,,,,,,,,,,,,
Test:,1397,,,,,,,,,,,,
Test Description:,,,,,,,,,,,,,
TestRegime Name:,Aging_Performance,,,,,,,,,,,,
TestRegime Suffix:,SHP_LC,,,,,,,,,,,,
TestRegime CellSize:,18650,,,,,,,,,,,,
TestRegime Version:,1,,,,,,,,,,,,
Number Of Cells:,1,,,,,,,,,,,,
LotID:,,,,,,,,,,,,,
Lot Description:,,,,,,,,,,,,,
Date Made:,1/21/2003 12:00 AM,,,,,,,,,,,,
Origin:,Other,,,,,,,,,,,,
Requestor:,Admin,,,,,,,,,,,,
Product ID:,Default product,,,,,,,,,,,,
Storage Temp:,R.T./AMB,,,,,,,,,,,,
Storage Delay:,0 days,,,,,,,,,,,,
Test Temp:,R.T./AMB,,,,,,,,,,,,
Start Time:,3/27/2018 12:32 PM,,,,,,,,,,,,
End Time:,3/27/2018 7:56 PM,,,,,,,,,,,,
Operator Instructions:,,,,,,,,,,,,,
Test,Cell,Rack,Shelf,Position,Cell ID,Step,Total Time (Seconds),Voltage (V),Current (A),Charge Capacity (mAh),Discharge Capacity (mAh),TC1 (Â°C),
1397,1,SBT2050,2,4,,0,1,3.32036,0,0,0,-1000,
1397,1,SBT2050,2,4,,0,141,3.32042,0,0,0,-1000,
1397,1,SBT2050,2,4,,0,281,3.32077,0,0,0,-1000,
1397,1,SBT2050,2,4,,1,421,2.49977,-1.2039,0,61.31,-1000,
1397,1,SBT2050,2,4,,1,561,2.49986,-0.7404,0,97.888,-1000,
1397,1,SBT2050,2,4,,1,701,2.49991,-0.4916,0,121.413,-1000,
1397,1,SBT2050,2,4,,1,841,2.49986,-0.33342,0,137.253,-1000,
1397,1,SBT2050,2,4,,1,981,2.4998,-0.21399,0,147.831,-1000,
1397,1,SBT2050,2,4,,1,1121,2.49955,-0.11486,0,154.155,-1000,
1397,1,SBT2050,2,4,,1,1261,2.499935,-0.05154,0,157.228,-1000,
1397,1,SBT2050,2,4,,1,1401,2.499947,-0.029829,0,158.718,-1000,
1397,1,SBT2050,2,4,,1,1541,2.49998,-0.022976,0,159.724,-1000,
1397,1,SBT2050,2,4,,1,1681,2.50005,-0.019669,0,160.548,24.9,
1397,1,SBT2050,2,4,,1,1821,2.499923,-0.017483,0,161.269,-1000,
1397,1,SBT2050,2,4,,1,1961,2.500078,-0.015963,0,161.917,-1000,
1397,1,SBT2050,2,4,,1,2101,2.499947,-0.014535,0,162.508,-1000,
1397,1,SBT2050,2,4,,1,2241,2.49998,-0.013265,0,163.048,-1000,
1397,1,SBT2050,2,4,,1,2381,2.50002,-0.012164,0,163.545,-1000,
1397,1,SBT2050,2,4,,1,2521,2.50005,-0.011364,0,164.004,-1000,
1397,1,SBT2050,2,4,,1,2661,2.50019,-0.010686,0,164.431,-1000,
1397,1,SBT2050,2,4,,2,2800,3.32285,2.9362,32.954,164.716,-1000,
1397,1,SBT2050,2,4,,2,2940,3.57468,2.9361,147.13,164.716,-1000,
1397,1,SBT2050,2,4,,2,3080,3.601116,2.936,261.305,164.716,-1000,
1397,1,SBT2050,2,4,,2,3220,3.63005,2.9364,375.481,164.716,-1000,
1397,1,SBT2050,2,4,,2,3360,3.656248,2.936,489.656,164.716,-1000,
1397,1,SBT2050,2,4,,2,3500,3.67735,2.9356,603.832,164.716,-1000,
1397,1,SBT2050,2,4,,2,3640,3.70031,2.9362,718.007,164.716,-1000,
1397,1,SBT2050,2,4,,2,3780,3.7239,2.9359,832.183,164.716,-1000,
1397,1,SBT2050,2,4,,2,3920,3.74778,2.9357,946.358,164.716,-1000,
1397,1,SBT2050,2,4,,2,4060,3.772512,2.9359,1060.534,164.716,-1000,
1397,1,SBT2050,2,4,,2,4200,3.79855,2.9363,1174.709,164.716,-1000,
1397,1,SBT2050,2,4,,2,4340,3.82727,2.9364,1288.885,164.716,-1000,
1397,1,SBT2050,2,4,,2,4480,3.85917,2.9357,1403.06,164.716,-1000,
1397,1,SBT2050,2,4,,2,4620,3.895026,2.936,1517.236,164.716,-1000,
1397,1,SBT2050,2,4,,2,4760,3.93386,2.9359,1631.411,164.716,-1000,
1397,1,SBT2050,2,4,,2,4900,3.97517,2.9358,1745.587,164.716,-1000,
1397,1,SBT2050,2,4,,2,5040,4.01682,2.9357,1859.762,164.716,-1000,
1397,1,SBT2050,2,4,,2,5180,4.05773,2.9361,1973.938,164.716,-1000,
1397,1,SBT2050,2,4,,2,5320,4.09846,2.936,2088.113,164.716,-1000,
1397,1,SBT2050,2,4,,2,5460,4.139272,2.9357,2202.288,164.716,-1000,
1397,1,SBT2050,2,4,,2,5600,4.1502,2.3926,2308.01,164.716,-1000,
1397,1,SBT2050,2,4,,2,5740,4.14995,1.8259,2389.51,164.716,-1000,
1397,1,SBT2050,2,4,,2,5880,4.15019,1.4061,2451.901,164.716,-1000,
1397,1,SBT2050,2,4,,2,6020,4.15028,1.1098,2500.459,164.716,-1000,
1397,1,SBT2050,2,4,,2,6160,4.15007,0.905,2539.383,164.716,-1000,
1397,1,SBT2050,2,4,,2,6300,4.150138,0.7635,2571.69,164.716,-1000,
1397,1,SBT2050,2,4,,2,6440,4.14992,0.6605,2599.267,164.716,-1000,
1397,1,SBT2050,2,4,,2,6580,4.14983,0.5771,2623.239,164.716,-1000,
1397,1,SBT2050,2,4,,2,6720,4.15019,0.5085,2644.305,164.716,-1000,
1397,1,SBT2050,2,4,,2,6860,4.15005,0.45262,2662.984,164.716,-1000,
1397,1,SBT2050,2,4,,2,7000,4.15009,0.40385,2679.635,164.716,-1000,
1397,1,SBT2050,2,4,,2,7140,4.14998,0.36204,2694.525,164.716,-1000,
1397,1,SBT2050,2,4,,2,7280,4.15003,0.32464,2707.861,164.716,-1000,
1397,1,SBT2050,2,4,,2,7420,4.15015,0.29242,2719.824,164.716,-1000,
1397,1,SBT2050,2,4,,2,7560,4.15021,0.26137,2730.552,164.716,-1000,
1397,1,SBT2050,2,4,,2,7700,4.15003,0.23654,2740.192,164.716,-1000,
1397,1,SBT2050,2,4,,2,7840,4.15008,0.21054,2748.847,164.716,-1000,
1397,1,SBT2050,2,4,,2,7980,4.15015,0.18959,2756.637,164.716,-1000,
1397,1,SBT2050,2,4,,2,8120,4.149876,0.17094,2763.636,164.716,-1000,
1397,1,SBT2050,2,4,,2,8260,4.15,0.1539,2769.943,164.716,-1000,
1397,1,SBT2050,2,4,,2,8400,4.14995,0.13863,2775.646,164.716,-1000,
1397,1,SBT2050,2,4,,2,8540,4.15021,0.1259,2780.79,164.716,-1000,
1397,1,SBT2050,2,4,,2,8680,4.149876,0.11376,2785.446,164.716,-1000,
1397,1,SBT2050,2,4,,2,8820,4.15028,0.10248,2789.647,164.716,-1000,
1397,1,SBT2050,2,4,,2,8960,4.15,0.09377,2793.456,164.716,-1000,
1397,1,SBT2050,2,4,,2,9100,4.15007,0.08438,2796.921,164.716,-1000,
1397,1,SBT2050,2,4,,2,9240,4.14996,0.0776,2800.076,164.716,-1000,
1397,1,SBT2050,2,4,,2,9380,4.1502,0.07106,2802.948,164.716,-1000,
1397,1,SBT2050,2,4,,2,9520,4.15022,0.06365,2805.54,164.716,-1000,
1397,1,SBT2050,2,4,,2,9660,4.149852,0.05906,2807.928,164.716,-1000,
1397,1,SBT2050,2,4,,2,9800,4.14983,0.05428,2810.113,164.716,-1000,
1397,1,SBT2050,2,4,,2,9940,4.15023,0.04901,2812.155,164.716,-1000,
1397,1,SBT2050,2,4,,2,10080,4.15005,0.044947,2813.98,164.716,-1000,
1397,1,SBT2050,2,4,,2,10220,4.14996,0.041757,2815.664,164.716,-1000,
1397,1,SBT2050,2,4,,2,10360,4.15009,0.038511,2817.226,164.716,-1000,
1397,1,SBT2050,2,4,,2,10500,4.15015,0.035881,2818.678,164.716,-1000,
1397,1,SBT2050,2,4,,2,10640,4.14982,0.034355,2820.025,164.716,-1000,
1397,1,SBT2050,2,4,,2,10780,4.14992,0.031538,2821.281,164.716,-1000,
1397,1,SBT2050,2,4,,2,10920,4.14994,0.027617,2822.422,164.716,-1000,
1397,1,SBT2050,2,4,,2,11060,4.150174,0.025777,2823.469,164.716,-1000,
1397,1,SBT2050,2,4,,2,11200,4.14996,0.024078,2824.425,164.716,-1000,
1397,1,SBT2050,2,4,,2,11340,4.15007,0.02199,2825.318,164.716,-1000,
1397,1,SBT2050,2,4,,2,11480,4.15011,0.020896,2826.154,164.716,-1000,
1397,1,SBT2050,2,4,,2,11620,4.15004,0.019863,2826.96,164.716,-1000,
1397,1,SBT2050,2,4,,2,11760,4.15001,0.018785,2827.707,164.716,-1000,
1397,1,SBT2050,2,4,,2,11900,4.14991,0.017315,2828.419,164.716,-1000,
1397,1,SBT2050,2,4,,2,12040,4.149888,0.017109,2829.077,164.716,-1000,
1397,1,SBT2050,2,4,,2,12180,4.14983,0.015703,2829.711,164.716,-1000,
1397,1,SBT2050,2,4,,2,12320,4.14998,0.014829,2830.296,164.716,-1000,
1397,1,SBT2050,2,4,,2,12460,4.14997,0.013277,2830.852,164.716,-1000,
1397,1,SBT2050,2,4,,2,12600,4.150174,0.012924,2831.365,164.716,-1000,
1397,1,SBT2050,2,4,,2,12740,4.15003,0.012247,2831.871,164.716,-1000,
1397,1,SBT2050,2,4,,2,12880,4.15004,0.011511,2832.323,164.716,-1000,
1397,1,SBT2050,2,4,,2,13020,4.15007,0.011363,2832.751,164.716,-1000,
1397,1,SBT2050,2,4,,3,13159,4.14906,0,2832.962,164.716,-1000,
1397,1,SBT2050,2,4,,3,13299,4.14851,0,2832.962,164.716,-1000,
1397,1,SBT2050,2,4,,3,13439,4.14822,0,2832.962,164.716,-1000,
1397,1,SBT2050,2,4,,3,13579,4.14777,0,2832.962,164.716,-1000,
1397,1,SBT2050,2,4,,3,13719,4.14789,0,2832.962,164.716,-1000,
1397,1,SBT2050,2,4,,3,13859,4.14757,0,2832.962,164.716,-1000,
1397,1,SBT2050,2,4,,3,13999,4.14788,0,2832.962,164.716,-1000,
1397,1,SBT2050,2,4,,3,14139,4.147396,0,2832.962,164.716,-1000,
1397,1,SBT2050,2,4,,3,14279,4.147502,0,2832.962,164.716,-1000,
1397,1,SBT2050,2,4,,3,14419,4.14725,0,2832.962,164.716,-1000,
1397,1,SBT2050,2,4,,3,14559,4.14701,0,2832.962,164.716,-1000,
1397,1,SBT2050,2,4,,3,14699,4.14714,0,2832.962,164.716,-1000,
1397,1,SBT2050,2,4,,3,14839,4.14675,0,2832.962,164.716,-1000,
1397,1,SBT2050,2,4,,4,14978,3.90747,-2.9363,2832.962,236.094,-1000,
1397,1,SBT2050,2,4,,4,15118,3.87777,-2.9359,2832.962,350.27,-1000,
1397,1,SBT2050,2,4,,4,15258,3.847132,-2.9362,2832.962,464.446,-1000,
1397,1,SBT2050,2,4,,4,15398,3.80978,-2.9359,2832.962,578.622,-1000,
1397,1,SBT2050,2,4,,4,15538,3.77098,-2.936,2832.962,692.798,-1000,
1397,1,SBT2050,2,4,,4,15678,3.734154,-2.936,2832.962,806.974,-1000,
1397,1,SBT2050,2,4,,4,15818,3.698986,-2.9357,2832.962,921.15,-1000,
1397,1,SBT2050,2,4,,4,15958,3.66279,-2.9357,2832.962,1035.326,-1000,
1397,1,SBT2050,2,4,,4,16098,3.62461,-2.936,2832.962,1149.502,-1000,
1397,1,SBT2050,2,4,,4,16238,3.58458,-2.936,2832.962,1263.678,-1000,
1397,1,SBT2050,2,4,,4,16378,3.54461,-2.936,2832.962,1377.854,-1000,
1397,1,SBT2050,2,4,,4,16518,3.50656,-2.9361,2832.962,1492.031,-1000,
1397,1,SBT2050,2,4,,4,16658,3.47169,-2.9358,2832.962,1606.207,-1000,
1397,1,SBT2050,2,4,,4,16798,3.43975,-2.9359,2832.962,1720.383,-1000,
1397,1,SBT2050,2,4,,4,16938,3.41014,-2.9367,2832.962,1834.56,-1000,
1397,1,SBT2050,2,4,,4,17078,3.38142,-2.9355,2832.962,1948.736,-1000,
1397,1,SBT2050,2,4,,4,17218,3.35077,-2.9363,2832.962,2062.912,-1000,
1397,1,SBT2050,2,4,,4,17358,3.315866,-2.9359,2832.962,2177.088,-1000,
1397,1,SBT2050,2,4,,4,17498,3.27385,-2.9361,2832.962,2291.264,-1000,
1397,1,SBT2050,2,4,,4,17638,3.2201,-2.936,2832.962,2405.44,-1000,
1397,1,SBT2050,2,4,,4,17778,3.14416,-2.9361,2832.962,2519.616,-1000,
1397,1,SBT2050,2,4,,4,17918,3.02307,-2.936,2832.962,2633.792,-1000,
1397,1,SBT2050,2,4,,4,18058,2.79527,-2.9362,2832.962,2747.969,-1000,
1397,1,SBT2050,2,4,,4,18198,2.49977,-2.2231,2832.962,2856.585,-1000,
1397,1,SBT2050,2,4,,4,18338,2.49958,-1.1668,2832.962,2920.536,-1000,
1397,1,SBT2050,2,4,,4,18478,2.49979,-0.616,2832.962,2953.922,-1000,
1397,1,SBT2050,2,4,,4,18618,2.49973,-0.347,2832.962,2972.066,-1000,
1397,1,SBT2050,2,4,,4,18758,2.4995,-0.18589,2832.962,2982.228,-1000,
1397,1,SBT2050,2,4,,4,18898,2.49965,-0.0795,2832.962,2987.217,-1000,
1397,1,SBT2050,2,4,,4,19038,2.5001,-0.034272,2832.962,2989.232,-1000,
1397,1,SBT2050,2,4,,4,19178,2.49996,-0.024335,2832.962,2990.328,-1000,
1397,1,SBT2050,2,4,,4,19318,2.49997,-0.020511,2832.962,2991.191,-1000,
1397,1,SBT2050,2,4,,4,19458,2.50009,-0.018123,2832.962,2991.939,-1000,
1397,1,SBT2050,2,4,,4,19598,2.49982,-0.016397,2832.962,2992.608,-1000,
1397,1,SBT2050,2,4,,4,19738,2.49987,-0.014962,2832.962,2993.214,-1000,
1397,1,SBT2050,2,4,,4,19878,2.49993,-0.013471,2832.962,2993.765,-1000,
1397,1,SBT2050,2,4,,4,20018,2.50001,-0.012234,2832.962,2994.265,-1000,
1397,1,SBT2050,2,4,,4,20158,2.499985,-0.011367,2832.962,2994.725,-1000,
1397,1,SBT2050,2,4,,4,20298,2.50001,-0.010319,2832.962,2995.15,-1000,
1397,1,SBT2050,2,4,,5,20437,2.53967,0,2832.962,2995.396,-1000,
1397,1,SBT2050,2,4,,5,20577,2.60359,0,2832.962,2995.396,-1000,
1397,1,SBT2050,2,4,,5,20717,2.64825,0,2832.962,2995.396,-1000,
1397,1,SBT2050,2,4,,5,20857,2.68039,0,2832.962,2995.396,-1000,
1397,1,SBT2050,2,4,,5,20997,2.70509,0,2832.962,2995.396,-1000,
1397,1,SBT2050,2,4,,5,26654.362,2.87746,0,2832.962,2995.396,,