File: 1C/Test1473.csv
Request Year:,2018,,,,,,,,,,,,
Test:,1473,,,,,,,,,,,,
Test Description:,,,,,,,,,,,,,
TestRegime Name:,Aging_Performance,,,,,,,,,,,,
TestRegime Suffix:,SHP_LC,,,,,,,,,,,,
TestRegime CellSize:,18650,,,,,,,,,,,,
TestRegime Version:,1,,,,,,,,,,,,
Number Of Cells:,1,,,,,,,,,,,,
LotID:,,,,,,,,,,,,,
Lot Description:,,,,,,,,,,,,,
Date Made:,1/21/2003 12:00 AM,,,,,,,,,,,,
Origin:,Other,,,,,,,,,,,,
Requestor:,Admin,,,,,,,,,,,,
Product ID:,Default product,,,,,,,,,,,,
Storage Temp:,R.T./AMB,,,,,,,,,,,,
Storage Delay:,0 days,,,,,,,,,,,,
Test Temp:,R.T./AMB,,,,,,,,,,,,
Start Time:,4/11/2018 3:31 AM,,,,,,,,,,,,
End Time:,4/11/2018 11:49 AM,,,,,,,,,,,,
Operator Instructions:,,,,,,,,,,,,,
Test,Cell,Rack,Shelf,Position,Cell ID,Step,Total Time (Seconds),Voltage (V),Current (A),Charge Capacity (mAh),Discharge Capacity (mAh),TC1 (Â°C),
1473,1,SBT2050,2,4,,0,1,3.34282,0,0,0,25.1,
1473,1,SBT2050,2,4,,0,195,3.342927,0,0,0,25.1,
1473,1,SBT2050,2,4,,1,389,2.49985,-1.4357,0,51.459,27.4,
1473,1,SBT2050,2,4,,1,583,2.49994,-0.774,0,108.341,28.7,
1473,1,SBT2050,2,4,,1,777,2.49986,-0.4824,0,141.338,28.2,
1473,1,SBT2050,2,4,,1,971,2.49968,-0.3296,0,162.777,27.4,
1473,1,SBT2050,2,4,,1,1165,2.49985,-0.24304,0,178.011,26.8,
1473,1,SBT2050,2,4,,1,1359,2.49991,-0.1882,0,189.521,26.4,
1473,1,SBT2050,2,4,,1,1553,2.49979,-0.15088,0,198.599,26.1,
1473,1,SBT2050,2,4,,1,1747,2.50001,-0.12289,0,205.94,25.9,
1473,1,SBT2050,2,4,,1,1941,2.499894,-0.10146,0,211.966,25.7,
1473,1,SBT2050,2,4,,1,2135,2.49987,-0.08463,0,216.963,25.6,
1473,1,SBT2050,2,4,,1,2329,2.50008,-0.07025,0,221.12,25.5,
1473,1,SBT2050,2,4,,1,2523,2.500037,-0.0582,0,224.57,25.4,
1473,1,SBT2050,2,4,,1,2717,2.50005,-0.04818,0,227.429,25.3,
1473,1,SBT2050,2,4,,1,2911,2.49995,-0.040194,0,229.804,25.3,
1473,1,SBT2050,2,4,,1,3105,2.5001,-0.034049,0,231.796,25.3,
1473,1,SBT2050,2,4,,1,3299,2.49994,-0.028649,0,233.475,25.3,
1473,1,SBT2050,2,4,,1,3493,2.49997,-0.02403,0,234.891,25.2,
1473,1,SBT2050,2,4,,1,3687,2.49991,-0.020076,0,236.077,25.2,
1473,1,SBT2050,2,4,,1,3881,2.49983,-0.016633,0,237.062,25.2,
1473,1,SBT2050,2,4,,1,4075,2.49983,-0.013623,0,237.881,25.2,
1473,1,SBT2050,2,4,,1,4269,2.49994,-0.011397,0,238.557,25.2,
1473,1,SBT2050,2,4,,2,4462,3.50691,2.9358,68.281,238.885,25.7,
1473,1,SBT2050,2,4,,2,4656,3.645434,2.9363,226.497,238.885,27.4,
1473,1,SBT2050,2,4,,2,4850,3.69345,2.936,384.712,238.885,28.5,
1473,1,SBT2050,2,4,,2,5044,3.72422,2.9363,542.928,238.885,28.9,
1473,1,SBT2050,2,4,,2,5238,3.75432,2.9359,701.144,238.885,28.8,
1473,1,SBT2050,2,4,,2,5432,3.78773,2.936,859.359,238.885,28.9,
1473,1,SBT2050,2,4,,2,5626,3.82295,2.9362,1017.575,238.885,28.8,
1473,1,SBT2050,2,4,,2,5820,3.86412,2.9356,1175.79,238.885,28.9,
1473,1,SBT2050,2,4,,2,6014,3.91181,2.9358,1334.006,238.885,29,
1473,1,SBT2050,2,4,,2,6208,3.96746,2.9358,1492.222,238.885,29.2,
1473,1,SBT2050,2,4,,2,6402,4.02556,2.9359,1650.437,238.885,29.3,
1473,1,SBT2050,2,4,,2,6596,4.08529,2.9362,1808.653,238.885,29.5,
1473,1,SBT2050,2,4,,2,6790,4.14749,2.9357,1966.869,238.885,29.7,
1473,1,SBT2050,2,4,,2,6984,4.15016,2.1897,2103.677,238.885,29.4,
1473,1,SBT2050,2,4,,2,7178,4.15026,1.649,2206.469,238.885,28.5,
1473,1,SBT2050,2,4,,2,7372,4.15027,1.2627,2284.315,238.885,27.6,
1473,1,SBT2050,2,4,,2,7566,4.15006,0.9894,2344.565,238.885,27,
1473,1,SBT2050,2,4,,2,7760,4.14989,0.795,2392.365,238.885,26.5,
1473,1,SBT2050,2,4,,2,7954,4.14995,0.6529,2431.215,238.885,26.1,
1473,1,SBT2050,2,4,,2,8148,4.15017,0.5474,2463.421,238.885,25.9,
1473,1,SBT2050,2,4,,2,8342,4.15016,0.46457,2490.588,238.885,25.7,
1473,1,SBT2050,2,4,,2,8536,4.14988,0.40119,2513.843,238.885,25.6,
1473,1,SBT2050,2,4,,2,8730,4.150096,0.34837,2533.987,238.885,25.5,
1473,1,SBT2050,2,4,,2,8924,4.14989,0.30638,2551.614,238.885,25.4,
1473,1,SBT2050,2,4,,2,9118,4.14997,0.27129,2567.162,238.885,25.3,
1473,1,SBT2050,2,4,,2,9312,4.14999,0.24276,2581.013,238.885,25.3,
1473,1,SBT2050,2,4,,2,9506,4.149822,0.21789,2593.407,238.885,25.3,
1473,1,SBT2050,2,4,,2,9700,4.15031,0.19673,2604.573,238.885,25.3,
1473,1,SBT2050,2,4,,2,9894,4.150382,0.1784,2614.658,238.885,25.2,
1473,1,SBT2050,2,4,,2,10088,4.150084,0.16219,2623.83,238.885,25.2,
1473,1,SBT2050,2,4,,2,10282,4.150132,0.14832,2632.2,238.885,25.2,
1473,1,SBT2050,2,4,,2,10476,4.15026,0.13512,2639.84,238.885,25.2,
1473,1,SBT2050,2,4,,2,10670,4.15026,0.12516,2646.843,238.885,25.2,
1473,1,SBT2050,2,4,,2,10864,4.14988,0.11478,2653.275,238.885,25.2,
1473,1,SBT2050,2,4,,2,11058,4.15004,0.10559,2659.22,238.885,25.2,
1473,1,SBT2050,2,4,,2,11252,4.15022,0.09766,2664.691,238.885,25.1,
1473,1,SBT2050,2,4,,2,11446,4.15018,0.09045,2669.76,238.885,25.2,
1473,1,SBT2050,2,4,,2,11640,4.15014,0.08372,2674.456,238.885,25.1,
1473,1,SBT2050,2,4,,2,11834,4.15,0.07746,2678.812,238.885,25.2,
1473,1,SBT2050,2,4,,2,12028,4.15022,0.07253,2682.86,238.885,25.2,
1473,1,SBT2050,2,4,,2,12222,4.15,0.067,2686.638,238.885,25.1,
1473,1,SBT2050,2,4,,2,12416,4.14993,0.06327,2690.167,238.885,25.1,
1473,1,SBT2050,2,4,,2,12610,4.15004,0.05898,2693.47,238.885,25.1,
1473,1,SBT2050,2,4,,2,12804,4.15002,0.05516,2696.549,238.885,25.1,
1473,1,SBT2050,2,4,,2,12998,4.15032,0.05117,2699.451,238.885,25.1,
1473,1,SBT2050,2,4,,2,13192,4.14994,0.04835,2702.155,238.885,25.1,
1473,1,SBT2050,2,4,,2,13386,4.14998,0.045945,2704.71,238.885,25.1,
1473,1,SBT2050,2,4,,2,13580,4.15006,0.043042,2707.116,238.885,25.2,
1473,1,SBT2050,2,4,,2,13774,4.15029,0.040403,2709.375,238.885,25.1,
1473,1,SBT2050,2,4,,2,13968,4.15012,0.038036,2711.506,238.885,25.2,
1473,1,SBT2050,2,4,,2,14162,4.15001,0.036182,2713.504,238.885,25.1,
1473,1,SBT2050,2,4,,2,14356,4.14991,0.034094,2715.413,238.885,25.1,
1473,1,SBT2050,2,4,,2,14550,4.15002,0.032258,2717.196,238.885,25.1,
1473,1,SBT2050,2,4,,2,14744,4.150132,0.030482,2718.886,238.885,25.2,
1473,1,SBT2050,2,4,,2,14938,4.149846,0.029423,2720.497,238.885,25.1,
1473,1,SBT2050,2,4,,2,15132,4.15001,0.027623,2722.013,238.885,25.1,
1473,1,SBT2050,2,4,,2,15326,4.15016,0.026475,2723.478,238.885,25.1,
1473,1,SBT2050,2,4,,2,15520,4.150084,0.024888,2724.864,238.885,25.1,
1473,1,SBT2050,2,4,,2,15714,4.14999,0.024028,2726.177,238.885,25.1,
1473,1,SBT2050,2,4,,2,15908,4.14991,0.022531,2727.422,238.885,25.1,
1473,1,SBT2050,2,4,,2,16102,4.14973,0.021712,2728.609,238.885,25.1,
1473,1,SBT2050,2,4,,2,16296,4.150096,0.021139,2729.751,238.885,25.1,
1473,1,SBT2050,2,4,,2,16490,4.15001,0.019738,2730.838,238.885,25.1,
1473,1,SBT2050,2,4,,2,16684,4.15001,0.018489,2731.876,238.885,25.1,
1473,1,SBT2050,2,4,,2,16878,4.15004,0.018239,2732.868,238.885,25.1,
1473,1,SBT2050,2,4,,2,17072,4.15007,0.017202,2733.827,238.885,25.1,
1473,1,SBT2050,2,4,,2,17266,4.15016,0.01691,2734.741,238.885,25.1,
1473,1,SBT2050,2,4,,2,17460,4.150096,0.015544,2735.626,238.885,25.1,
1473,1,SBT2050,2,4,,2,17654,4.14992,0.015426,2736.46,238.885,25.1,
1473,1,SBT2050,2,4,,2,17848,4.14989,0.014315,2737.275,238.885,25.2,
1473,1,SBT2050,2,4,,2,18042,4.14999,0.014364,2738.051,238.885,25.2,
1473,1,SBT2050,2,4,,2,18236,4.15006,0.013601,2738.797,238.885,25.1,
1473,1,SBT2050,2,4,,2,18430,4.15019,0.012759,2739.513,238.885,25.1,
1473,1,SBT2050,2,4,,2,18624,4.14981,0.012563,2740.211,238.885,25.1,
1473,1,SBT2050,2,4,,2,18818,4.150096,0.011875,2740.869,238.885,25.1,
1473,1,SBT2050,2,4,,2,19012,4.14991,0.011978,2741.507,238.885,25.1,
1473,1,SBT2050,2,4,,2,19206,4.14989,0.011397,2742.126,238.885,25.1,
1473,1,SBT2050,2,4,,2,19400,4.14998,0.010587,2742.721,238.885,25.1,
1473,1,SBT2050,2,4,,3,19593,4.14732,0,2743.05,238.885,25.1,
1473,1,SBT2050,2,4,,3,19787,4.14649,0,2743.05,238.885,25.1,
1473,1,SBT2050,2,4,,3,19981,4.14595,0,2743.05,238.885,25.1,
1473,1,SBT2050,2,4,,3,20175,4.14499,0,2743.05,238.885,25.1,
1473,1,SBT2050,2,4,,3,20369,4.14496,0,2743.05,238.885,25.1,
1473,1,SBT2050,2,4,,3,20563,4.1449,0,2743.05,238.885,25.1,
1473,1,SBT2050,2,4,,3,20757,4.14451,0,2743.05,238.885,25.1,
1473,1,SBT2050,2,4,,3,20951,4.14425,0,2743.05,238.885,25.1,
1473,1,SBT2050,2,4,,3,21145,4.14401,0,2743.05,238.885,25.1,
1473,1,SBT2050,2,4,,4,21338,3.84692,-2.9358,2743.05,260.777,25.3,
1473,1,SBT2050,2,4,,4,21532,3.76634,-2.9362,2743.05,418.993,27.3,
1473,1,SBT2050,2,4,,4,21726,3.73469,-2.9363,2743.05,577.208,28.2,
1473,1,SBT2050,2,4,,4,21920,3.69477,-2.9359,2743.05,735.423,28.5,
1473,1,SBT2050,2,4,,4,22114,3.64807,-2.9354,2743.05,893.638,28.5,
1473,1,SBT2050,2,4,,4,22308,3.59769,-2.936,2743.05,1051.853,28.4,
1473,1,SBT2050,2,4,,4,22502,3.54433,-2.9358,2743.05,1210.068,28.5,
1473,1,SBT2050,2,4,,4,22696,3.49013,-2.9357,2743.05,1368.283,28.5,
1473,1,SBT2050,2,4,,4,22890,3.43681,-2.9357,2743.05,1526.499,28.5,
1473,1,SBT2050,2,4,,4,23084,3.387,-2.936,2743.05,1684.714,28.6,
1473,1,SBT2050,2,4,,4,23278,3.33693,-2.9362,2743.05,1842.929,28.7,
1473,1,SBT2050,2,4,,4,23472,3.28186,-2.9359,2743.05,2001.145,29,
1473,1,SBT2050,2,4,,4,23666,3.2171,-2.9361,2743.05,2159.361,29.3,
1473,1,SBT2050,2,4,,4,23860,3.1323,-2.9365,2743.05,2317.576,29.8,
1473,1,SBT2050,2,4,,4,24054,3.01033,-2.9363,2743.05,2475.791,30.7,
1473,1,SBT2050,2,4,,4,24248,2.79906,-2.9362,2743.05,2634.007,32,
1473,1,SBT2050,2,4,,4,24442,2.49977,-2.0444,2743.05,2781.648,34.5,
1473,1,SBT2050,2,4,,4,24636,2.49995,-0.9368,2743.05,2857.435,32.8,
1473,1,SBT2050,2,4,,4,24830,2.49995,-0.5096,2743.05,2894.659,30.3,
1473,1,SBT2050,2,4,,4,25024,2.499844,-0.32473,2743.05,2916.51,28.5,
1473,1,SBT2050,2,4,,4,25218,2.499987,-0.23113,2743.05,2931.244,27.3,
1473,1,SBT2050,2,4,,4,25412,2.50001,-0.17419,2743.05,2942.045,26.6,
1473,1,SBT2050,2,4,,4,25606,2.49992,-0.13597,2743.05,2950.332,26.2,
1473,1,SBT2050,2,4,,4,25800,2.49987,-0.1081,2743.05,2956.866,25.9,
1473,1,SBT2050,2,4,,4,25994,2.49995,-0.08599,2743.05,2962.076,25.7,
1473,1,SBT2050,2,4,,4,26188,2.50001,-0.06885,2743.05,2966.237,25.6,
1473,1,SBT2050,2,4,,4,26382,2.499975,-0.05542,2743.05,2969.567,25.6,
1473,1,SBT2050,2,4,,4,26576,2.4999,-0.044991,2743.05,2972.261,25.4,
1473,1,SBT2050,2,4,,4,26770,2.50007,-0.036763,2743.05,2974.462,25.4,
1473,1,SBT2050,2,4,,4,26964,2.50005,-0.030314,2743.05,2976.263,25.4,
1473,1,SBT2050,2,4,,4,27158,2.49982,-0.024523,2743.05,2977.735,25.3,
1473,1,SBT2050,2,4,,4,27352,2.5,-0.020351,2743.05,2978.945,25.3,
1473,1,SBT2050,2,4,,4,27546,2.4998,-0.01677,2743.05,2979.943,25.2,
1473,1,SBT2050,2,4,,4,27740,2.50013,-0.014214,2743.05,2980.774,25.2,
1473,1,SBT2050,2,4,,4,27934,2.50007,-0.011626,2743.05,2981.463,25.2,
1473,1,SBT2050,2,4,,5,28127,2.53737,0,2743.05,2981.863,25.2,
1473,1,SBT2050,2,4,,5,28321,2.60632,0,2743.05,2981.863,25.2,
1473,1,SBT2050,2,4,,5,28515,2.65074,0,2743.05,2981.863,25.2,
1473,1,SBT2050,2,4,,5,28709,2.68167,0,2743.05,2981.863,25.1,
1473,1,SBT2050,2,4,,5,28903,2.7054,0,2743.05,2981.863,25.1,
1473,1,SBT2050,2,4,,5,29097,2.72393,0,2743.05,2981.863,25.2,
1473,1,SBT2050,2,4,,5,29291,2.73874,0,2743.05,2981.863,25.1,
1473,1,SBT2050,2,4,,5,29485,2.751312,0,2743.05,2981.863,25.1,
1473,1,SBT2050,2,4,,5,29679,2.76142,0,2743.05,2981.863,25.1,
1473,1,SBT2050,2,4,,5,29866.012,2.77017,-9.9E-05,2743.05,2981.863,,