File: 1C/Test1501.csv
Request Year:,2018,,,,,,,,,,,,
Test:,1501,,,,,,,,,,,,
Test Description:,,,,,,,,,,,,,
TestRegime Name:,Aging_Performance,,,,,,,,,,,,
TestRegime Suffix:,SHP_LC,,,,,,,,,,,,
TestRegime CellSize:,18650,,,,,,,,,,,,
TestRegime Version:,1,,,,,,,,,,,,
Number Of Cells:,1,,,,,,,,,,,,
LotID:,,,,,,,,,,,,,
Lot Description:,,,,,,,,,,,,,
Date Made:,1/21/2003 12:00 AM,,,,,,,,,,,,
Origin:,Other,,,,,,,,,,,,
Requestor:,Admin,,,,,,,,,,,,
Product ID:,Default product,,,,,,,,,,,,
Storage Temp:,R.T./AMB,,,,,,,,,,,,
Storage Delay:,0 days,,,,,,,,,,,,
Test Temp:,R.T./AMB,,,,,,,,,,,,
Start Time:,4/15/2018 1:05 PM,,,,,,,,,,,,
End Time:,4/15/2018 10:39 PM,,,,,,,,,,,,
Operator Instructions:,,,,,,,,,,,,,
Test,Cell,Rack,Shelf,Position,Cell ID,Step,Total Time (Seconds),Voltage (V),Current (A),Charge Capacity (mAh),Discharge Capacity (mAh),TC1 (Â°C),
1501,1,SBT2050,2,4,,0,1,3.35654,0,0,0,25.1,
1501,1,SBT2050,2,4,,0,225,3.35673,0,0,0,25.1,
1501,1,SBT2050,2,4,,1,449,2.4999,-1.2563,0,76.273,28.3,
1501,1,SBT2050,2,4,,1,673,2.49985,-0.7248,0,135.712,28.8,
1501,1,SBT2050,2,4,,1,897,2.49985,-0.46898,0,172.072,28,
1501,1,SBT2050,2,4,,1,1121,2.499674,-0.32847,0,196.454,27.3,
1501,1,SBT2050,2,4,,1,1345,2.4999,-0.24532,0,214.068,26.7,
1501,1,SBT2050,2,4,,1,1569,2.49986,-0.19203,0,227.563,26.3,
1501,1,SBT2050,2,4,,1,1793,2.5001,-0.15579,0,238.332,26,
1501,1,SBT2050,2,4,,1,2017,2.4999,-0.12814,0,247.123,25.7,
1501,1,SBT2050,2,4,,1,2241,2.50002,-0.10688,0,254.413,25.5,
1501,1,SBT2050,2,4,,1,2465,2.499984,-0.0899,0,260.511,25.4,
1501,1,SBT2050,2,4,,1,2689,2.4999,-0.07488,0,265.621,25.3,
1501,1,SBT2050,2,4,,1,2913,2.49985,-0.06271,0,269.895,25.3,
1501,1,SBT2050,2,4,,1,3137,2.49995,-0.0525,0,273.471,25.2,
1501,1,SBT2050,2,4,,1,3361,2.4999,-0.043903,0,276.464,25.2,
1501,1,SBT2050,2,4,,1,3585,2.499829,-0.03689,0,278.979,25.1,
1501,1,SBT2050,2,4,,1,3809,2.50004,-0.031522,0,281.114,25.1,
1501,1,SBT2050,2,4,,1,4033,2.50001,-0.027095,0,282.937,25.1,
1501,1,SBT2050,2,4,,1,4257,2.49995,-0.023253,0,284.503,25,
1501,1,SBT2050,2,4,,1,4481,2.50003,-0.019919,0,285.847,25.1,
1501,1,SBT2050,2,4,,1,4705,2.499984,-0.017043,0,286.998,25.1,
1501,1,SBT2050,2,4,,1,4929,2.49995,-0.014633,0,287.986,25,
1501,1,SBT2050,2,4,,1,5153,2.49991,-0.012375,0,288.828,24.9,
1501,1,SBT2050,2,4,,1,5377,2.49995,-0.01038,0,289.544,25,
1501,1,SBT2050,2,4,,2,5600,3.64499,2.9361,135.146,289.709,26.3,
1501,1,SBT2050,2,4,,2,5824,3.70899,2.936,317.827,289.709,28.3,
1501,1,SBT2050,2,4,,2,6048,3.7499,2.9359,500.507,289.709,29.1,
1501,1,SBT2050,2,4,,2,6272,3.78579,2.9359,683.188,289.709,29.2,
1501,1,SBT2050,2,4,,2,6496,3.82561,2.9362,865.869,289.709,29.2,
1501,1,SBT2050,2,4,,2,6720,3.87123,2.936,1048.549,289.709,29.2,
1501,1,SBT2050,2,4,,2,6944,3.92611,2.9353,1231.23,289.709,29.3,
1501,1,SBT2050,2,4,,2,7168,3.98951,2.9361,1413.911,289.709,29.6,
1501,1,SBT2050,2,4,,2,7392,4.05723,2.936,1596.591,289.709,29.7,
1501,1,SBT2050,2,4,,2,7616,4.12716,2.9356,1779.272,289.709,30,
1501,1,SBT2050,2,4,,2,7840,4.15034,2.3497,1948.174,289.709,29.9,
1501,1,SBT2050,2,4,,2,8064,4.15025,1.7444,2074.518,289.709,28.7,
1501,1,SBT2050,2,4,,2,8288,4.15028,1.3193,2169.003,289.709,27.8,
1501,1,SBT2050,2,4,,2,8512,4.15022,1.0256,2241.468,289.709,27,
1501,1,SBT2050,2,4,,2,8736,4.150088,0.819,2298.464,289.709,26.5,
1501,1,SBT2050,2,4,,2,8960,4.15014,0.6661,2344.429,289.709,26.1,
1501,1,SBT2050,2,4,,2,9184,4.15,0.5529,2382.171,289.709,25.8,
1501,1,SBT2050,2,4,,2,9408,4.15004,0.46611,2413.725,289.709,25.6,
1501,1,SBT2050,2,4,,2,9632,4.14998,0.39794,2440.517,289.709,25.5,
1501,1,SBT2050,2,4,,2,9856,4.15002,0.34502,2463.566,289.709,25.4,
1501,1,SBT2050,2,4,,2,10080,4.15021,0.30234,2483.645,289.709,25.3,
1501,1,SBT2050,2,4,,2,10304,4.15003,0.26864,2501.346,289.709,25.3,
1501,1,SBT2050,2,4,,2,10528,4.14986,0.24013,2517.13,289.709,25.3,
1501,1,SBT2050,2,4,,2,10752,4.14998,0.21551,2531.298,289.709,25.2,
1501,1,SBT2050,2,4,,2,10976,4.15024,0.19492,2544.069,289.709,25,
1501,1,SBT2050,2,4,,2,11200,4.14992,0.1772,2555.629,289.709,25.1,
1501,1,SBT2050,2,4,,2,11424,4.1501,0.16117,2566.161,289.709,25.1,
1501,1,SBT2050,2,4,,2,11648,4.150088,0.1482,2575.788,289.709,25.1,
1501,1,SBT2050,2,4,,2,11872,4.15002,0.13595,2584.625,289.709,25.1,
1501,1,SBT2050,2,4,,2,12096,4.14985,0.1252,2592.743,289.709,25,
1501,1,SBT2050,2,4,,2,12320,4.15027,0.11478,2600.205,289.709,25,
1501,1,SBT2050,2,4,,2,12544,4.14991,0.10657,2607.074,289.709,25,
1501,1,SBT2050,2,4,,2,12768,4.14986,0.09893,2613.449,289.709,25,
1501,1,SBT2050,2,4,,2,12992,4.15,0.09214,2619.365,289.709,25,
1501,1,SBT2050,2,4,,2,13216,4.14993,0.08507,2624.867,289.709,25,
1501,1,SBT2050,2,4,,2,13440,4.14975,0.07981,2629.994,289.709,25,
1501,1,SBT2050,2,4,,2,13664,4.150112,0.07434,2634.773,289.709,25.1,
1501,1,SBT2050,2,4,,2,13888,4.150076,0.06899,2639.225,289.709,25,
1501,1,SBT2050,2,4,,2,14112,4.149826,0.06492,2643.383,289.709,24.9,
1501,1,SBT2050,2,4,,2,14336,4.1502,0.06083,2647.286,289.709,25,
1501,1,SBT2050,2,4,,2,14560,4.149814,0.05689,2650.956,289.709,25,
1501,1,SBT2050,2,4,,2,14784,4.14985,0.05372,2654.4,289.709,25,
1501,1,SBT2050,2,4,,2,15008,4.14992,0.05052,2657.654,289.709,25,
1501,1,SBT2050,2,4,,2,15232,4.1501,0.047444,2660.71,289.709,25,
1501,1,SBT2050,2,4,,2,15456,4.149826,0.045008,2663.592,289.709,25,
1501,1,SBT2050,2,4,,2,15680,4.14999,0.042058,2666.294,289.709,24.9,
1501,1,SBT2050,2,4,,2,15904,4.15006,0.039686,2668.843,289.709,24.9,
1501,1,SBT2050,2,4,,2,16128,4.15006,0.037284,2671.249,289.709,24.9,
1501,1,SBT2050,2,4,,2,16352,4.14993,0.035476,2673.522,289.709,25,
1501,1,SBT2050,2,4,,2,16576,4.14992,0.033817,2675.676,289.709,24.9,
1501,1,SBT2050,2,4,,2,16800,4.14977,0.032288,2677.725,289.709,24.8,
1501,1,SBT2050,2,4,,2,17024,4.15017,0.030736,2679.67,289.709,24.9,
1501,1,SBT2050,2,4,,2,17248,4.14998,0.029018,2681.52,289.709,24.9,
1501,1,SBT2050,2,4,,2,17472,4.14987,0.028093,2683.284,289.709,24.9,
1501,1,SBT2050,2,4,,2,17696,4.15006,0.026541,2684.967,289.709,24.9,
1501,1,SBT2050,2,4,,2,17920,4.14986,0.025015,2686.579,289.709,24.9,
1501,1,SBT2050,2,4,,2,18144,4.15004,0.024201,2688.123,289.709,24.9,
1501,1,SBT2050,2,4,,2,18368,4.15005,0.022957,2689.586,289.709,24.9,
1501,1,SBT2050,2,4,,2,18592,4.15015,0.022314,2690.991,289.709,25,
1501,1,SBT2050,2,4,,2,18816,4.14995,0.020923,2692.332,289.709,24.9,
1501,1,SBT2050,2,4,,2,19040,4.149826,0.020246,2693.623,289.709,25,
1501,1,SBT2050,2,4,,2,19264,4.14999,0.019411,2694.853,289.709,25,
1501,1,SBT2050,2,4,,2,19488,4.14995,0.018179,2696.043,289.709,24.9,
1501,1,SBT2050,2,4,,2,19712,4.14991,0.018323,2697.186,289.709,24.9,
1501,1,SBT2050,2,4,,2,19936,4.15,0.017524,2698.276,289.709,24.9,
1501,1,SBT2050,2,4,,2,20160,4.150076,0.016788,2699.331,289.709,24.9,
1501,1,SBT2050,2,4,,2,20384,4.149814,0.01587,2700.343,289.709,24.9,
1501,1,SBT2050,2,4,,2,20608,4.15006,0.014941,2701.316,289.709,25,
1501,1,SBT2050,2,4,,2,20832,4.14993,0.015003,2702.254,289.709,24.9,
1501,1,SBT2050,2,4,,2,21056,4.150112,0.014073,2703.154,289.709,25,
1501,1,SBT2050,2,4,,2,21280,4.14991,0.013674,2704.023,289.709,25,
1501,1,SBT2050,2,4,,2,21504,4.15003,0.013196,2704.863,289.709,24.9,
1501,1,SBT2050,2,4,,2,21728,4.14999,0.012637,2705.686,289.709,25,
1501,1,SBT2050,2,4,,2,21952,4.14992,0.012523,2706.476,289.709,25,
1501,1,SBT2050,2,4,,2,22176,4.150076,0.012221,2707.239,289.709,25,
1501,1,SBT2050,2,4,,2,22400,4.149838,0.011325,2707.97,289.709,24.8,
1501,1,SBT2050,2,4,,2,22624,4.14993,0.01162,2708.678,289.709,24.9,
1501,1,SBT2050,2,4,,2,22848,4.14992,0.010659,2709.367,289.709,24.9,
1501,1,SBT2050,2,4,,3,23071,4.14726,0,2709.876,289.709,24.9,
1501,1,SBT2050,2,4,,3,23295,4.14611,0,2709.876,289.709,24.9,
1501,1,SBT2050,2,4,,3,23519,4.145478,0,2709.876,289.709,24.9,
1501,1,SBT2050,2,4,,3,23743,4.14478,0,2709.876,289.709,24.9,
1501,1,SBT2050,2,4,,3,23967,4.14423,0,2709.876,289.709,24.9,
1501,1,SBT2050,2,4,,3,24191,4.14373,0,2709.876,289.709,24.9,
1501,1,SBT2050,2,4,,3,24415,4.14349,0,2709.876,289.709,24.9,
1501,1,SBT2050,2,4,,3,24639,4.14306,0,2709.876,289.709,25,
1501,1,SBT2050,2,4,,4,24862,3.79374,-2.9355,2709.876,324.981,25.4,
1501,1,SBT2050,2,4,,4,25086,3.722698,-2.9359,2709.876,507.663,27.6,
1501,1,SBT2050,2,4,,4,25310,3.682322,-2.9361,2709.876,690.345,28.6,
1501,1,SBT2050,2,4,,4,25534,3.63005,-2.9361,2709.876,873.027,28.7,
1501,1,SBT2050,2,4,,4,25758,3.57093,-2.9359,2709.876,1055.709,28.8,
1501,1,SBT2050,2,4,,4,25982,3.508588,-2.9355,2709.876,1238.391,28.8,
1501,1,SBT2050,2,4,,4,26206,3.44521,-2.9365,2709.876,1421.073,28.8,
1501,1,SBT2050,2,4,,4,26430,3.382566,-2.9362,2709.876,1603.755,29,
1501,1,SBT2050,2,4,,4,26654,3.319182,-2.9362,2709.876,1786.437,29,
1501,1,SBT2050,2,4,,4,26878,3.24994,-2.9361,2709.876,1969.119,29.4,
1501,1,SBT2050,2,4,,4,27102,3.16679,-2.9362,2709.876,2151.801,29.8,
1501,1,SBT2050,2,4,,4,27326,3.05619,-2.9359,2709.876,2334.483,30.7,
1501,1,SBT2050,2,4,,4,27550,2.88734,-2.936,2709.876,2517.166,31.8,
1501,1,SBT2050,2,4,,4,27774,2.49971,-2.769,2709.876,2699.651,34,
1501,1,SBT2050,2,4,,4,27998,2.49975,-1.1581,2709.876,2811.962,33.5,
1501,1,SBT2050,2,4,,4,28222,2.499909,-0.5922,2709.876,2863.526,30.6,
1501,1,SBT2050,2,4,,4,28446,2.49996,-0.38477,2709.876,2892.942,28.6,
1501,1,SBT2050,2,4,,4,28670,2.49997,-0.29083,2709.876,2913.684,27.3,
1501,1,SBT2050,2,4,,4,28894,2.499909,-0.23162,2709.876,2929.848,26.6,
1501,1,SBT2050,2,4,,4,29118,2.499909,-0.18781,2709.876,2942.834,26.2,
1501,1,SBT2050,2,4,,4,29342,2.499921,-0.15283,2709.876,2953.387,25.9,
1501,1,SBT2050,2,4,,4,29566,2.50002,-0.12472,2709.876,2961.994,25.8,
1501,1,SBT2050,2,4,,4,29790,2.50009,-0.10133,2709.876,2969.011,25.6,
1501,1,SBT2050,2,4,,4,30014,2.49998,-0.08237,2709.876,2974.701,25.5,
1501,1,SBT2050,2,4,,4,30238,2.49986,-0.0675,2709.876,2979.343,25.3,
1501,1,SBT2050,2,4,,4,30462,2.49997,-0.05635,2709.876,2983.191,25.2,
1501,1,SBT2050,2,4,,4,30686,2.50002,-0.04787,2709.876,2986.428,25.2,
1501,1,SBT2050,2,4,,4,30910,2.49996,-0.04082,2709.876,2989.18,25.2,
1501,1,SBT2050,2,4,,4,31134,2.49996,-0.034495,2709.876,2991.516,25.2,
1501,1,SBT2050,2,4,,4,31358,2.49999,-0.029096,2709.876,2993.488,25.2,
1501,1,SBT2050,2,4,,4,31582,2.4999,-0.024063,2709.876,2995.136,25.1,
1501,1,SBT2050,2,4,,4,31806,2.5,-0.019932,2709.876,2996.501,25.1,
1501,1,SBT2050,2,4,,4,32030,2.49979,-0.01632,2709.876,2997.629,25.2,
1501,1,SBT2050,2,4,,4,32254,2.49997,-0.013616,2709.876,2998.559,25,
1501,1,SBT2050,2,4,,4,32478,2.49998,-0.011284,2709.876,2999.328,25.1,
1501,1,SBT2050,2,4,,5,32701,2.55481,0,2709.876,2999.694,25,
1501,1,SBT2050,2,4,,5,32925,2.625484,0,2709.876,2999.694,24.9,
1501,1,SBT2050,2,4,,5,33149,2.66864,0,2709.876,2999.694,25,
1501,1,SBT2050,2,4,,5,33373,2.69754,0,2709.876,2999.694,25,
1501,1,SBT2050,2,4,,5,33597,2.71897,0,2709.876,2999.694,25,
1501,1,SBT2050,2,4,,5,33821,2.73532,0,2709.876,2999.694,24.9,
1501,1,SBT2050,2,4,,5,34045,2.748534,0,2709.876,2999.694,25,
1501,1,SBT2050,2,4,,5,34269,2.759638,0,2709.876,2999.694,25,
1501,1,SBT2050,2,4,,5,34400.861,2.76525,-0.000101,2709.876,2999.694,,