File: 1C/Test1563.csv
Request Year:,2018,,,,,,,,,,,,
Test:,1563,,,,,,,,,,,,
Test Description:,,,,,,,,,,,,,
TestRegime Name:,Aging_Performance,,,,,,,,,,,,
TestRegime Suffix:,SHP_LC,,,,,,,,,,,,
TestRegime CellSize:,18650,,,,,,,,,,,,
TestRegime Version:,1,,,,,,,,,,,,
Number Of Cells:,1,,,,,,,,,,,,
LotID:,,,,,,,,,,,,,
Lot Description:,,,,,,,,,,,,,
Date Made:,1/21/2003 12:00 AM,,,,,,,,,,,,
Origin:,Other,,,,,,,,,,,,
Requestor:,Admin,,,,,,,,,,,,
Product ID:,Default product,,,,,,,,,,,,
Storage Temp:,R.T./AMB,,,,,,,,,,,,
Storage Delay:,0 days,,,,,,,,,,,,
Test Temp:,R.T./AMB,,,,,,,,,,,,
Start Time:,4/29/2018 2:29 AM,,,,,,,,,,,,
End Time:,4/29/2018 2:22 PM,,,,,,,,,,,,
Operator Instructions:,,,,,,,,,,,,,
Test,Cell,Rack,Shelf,Position,Cell ID,Step,Total Time (Seconds),Voltage (V),Current (A),Charge Capacity (mAh),Discharge Capacity (mAh),TC1 (Â°C),
1563,1,SBT2050,2,4,,0,1,3.3674,0,0,0,25.1,
1563,1,SBT2050,2,4,,0,276,3.368408,0,0,0,25.2,
1563,1,SBT2050,2,4,,1,551,2.499858,-0.9534,0,107.365,28.9,
1563,1,SBT2050,2,4,,1,826,2.49982,-0.5382,0,161.906,28.4,
1563,1,SBT2050,2,4,,1,1101,2.49997,-0.35657,0,195.227,27.5,
1563,1,SBT2050,2,4,,1,1376,2.49998,-0.26449,0,218.574,26.8,
1563,1,SBT2050,2,4,,1,1651,2.500025,-0.20936,0,236.501,26.4,
1563,1,SBT2050,2,4,,1,1926,2.49983,-0.17198,0,250.974,26.1,
1563,1,SBT2050,2,4,,1,2201,2.499858,-0.14562,0,263.053,25.9,
1563,1,SBT2050,2,4,,1,2476,2.50012,-0.12587,0,273.388,25.8,
1563,1,SBT2050,2,4,,1,2751,2.49992,-0.10978,0,282.363,25.6,
1563,1,SBT2050,2,4,,1,3026,2.49992,-0.09654,0,290.232,25.5,
1563,1,SBT2050,2,4,,1,3301,2.49997,-0.08517,0,297.16,25.5,
1563,1,SBT2050,2,4,,1,3576,2.500025,-0.07489,0,303.261,25.4,
1563,1,SBT2050,2,4,,1,3851,2.49997,-0.06604,0,308.633,25.4,
1563,1,SBT2050,2,4,,1,4126,2.49994,-0.05806,0,313.362,25.4,
1563,1,SBT2050,2,4,,1,4401,2.500001,-0.05099,0,317.523,25.3,
1563,1,SBT2050,2,4,,1,4676,2.499882,-0.044789,0,321.182,25.3,
1563,1,SBT2050,2,4,,1,4951,2.500013,-0.039377,0,324.396,25.3,
1563,1,SBT2050,2,4,,1,5226,2.49997,-0.034577,0,327.214,25.2,
1563,1,SBT2050,2,4,,1,5501,2.500013,-0.030494,0,329.693,25.2,
1563,1,SBT2050,2,4,,1,5776,2.49997,-0.026954,0,331.882,25.2,
1563,1,SBT2050,2,4,,1,6051,2.500013,-0.02366,0,333.81,25.2,
1563,1,SBT2050,2,4,,1,6326,2.49995,-0.020651,0,335.498,25.2,
1563,1,SBT2050,2,4,,1,6601,2.49992,-0.018147,0,336.978,25.1,
1563,1,SBT2050,2,4,,1,6876,2.50024,-0.01609,0,338.283,25.1,
1563,1,SBT2050,2,4,,1,7151,2.49987,-0.014241,0,339.438,25.2,
1563,1,SBT2050,2,4,,1,7426,2.49992,-0.012729,0,340.466,25.1,
1563,1,SBT2050,2,4,,1,7701,2.49995,-0.01109,0,341.383,25.2,
1563,1,SBT2050,2,4,,2,7975,2.94047,2.9364,1.082,342.2,25.2,
1563,1,SBT2050,2,4,,2,8250,3.701184,2.9358,225.355,342.2,27.9,
1563,1,SBT2050,2,4,,2,8525,3.76884,2.936,449.628,342.2,29.4,
1563,1,SBT2050,2,4,,2,8800,3.81493,2.9358,673.902,342.2,29.7,
1563,1,SBT2050,2,4,,2,9075,3.86633,2.9364,898.176,342.2,29.7,
1563,1,SBT2050,2,4,,2,9350,3.929,2.9359,1122.45,342.2,29.8,
1563,1,SBT2050,2,4,,2,9625,4.00448,2.9361,1346.724,342.2,30.2,
1563,1,SBT2050,2,4,,2,9900,4.08917,2.9365,1570.998,342.2,30.4,
1563,1,SBT2050,2,4,,2,10175,4.15023,2.57,1790.123,342.2,30.4,
1563,1,SBT2050,2,4,,2,10450,4.15013,1.8134,1955.732,342.2,29.4,
1563,1,SBT2050,2,4,,2,10725,4.15013,1.314,2073.916,342.2,28.1,
1563,1,SBT2050,2,4,,2,11000,4.1498,0.9959,2161.322,342.2,27.2,
1563,1,SBT2050,2,4,,2,11275,4.15006,0.7754,2228.383,342.2,26.7,
1563,1,SBT2050,2,4,,2,11550,4.14996,0.6219,2281.385,342.2,26.3,
1563,1,SBT2050,2,4,,2,11825,4.15023,0.5094,2324.389,342.2,26.1,
1563,1,SBT2050,2,4,,2,12100,4.14999,0.42598,2360.001,342.2,26,
1563,1,SBT2050,2,4,,2,12375,4.15009,0.36376,2390.046,342.2,25.8,
1563,1,SBT2050,2,4,,2,12650,4.14988,0.31359,2415.808,342.2,25.7,
1563,1,SBT2050,2,4,,2,12925,4.14997,0.27478,2438.26,342.2,25.6,
1563,1,SBT2050,2,4,,2,13200,4.14996,0.24238,2457.978,342.2,25.6,
1563,1,SBT2050,2,4,,2,13475,4.15003,0.21585,2475.451,342.2,25.5,
1563,1,SBT2050,2,4,,2,13750,4.14982,0.19288,2491.019,342.2,25.5,
1563,1,SBT2050,2,4,,2,14025,4.149932,0.17313,2504.96,342.2,25.4,
1563,1,SBT2050,2,4,,2,14300,4.15007,0.15538,2517.49,342.2,25.4,
1563,1,SBT2050,2,4,,2,14575,4.15035,0.14167,2528.807,342.2,25.4,
1563,1,SBT2050,2,4,,2,14850,4.15018,0.12835,2539.103,342.2,25.3,
1563,1,SBT2050,2,4,,2,15125,4.14969,0.1182,2548.501,342.2,25.3,
1563,1,SBT2050,2,4,,2,15400,4.15024,0.10811,2557.131,342.2,25.3,
1563,1,SBT2050,2,4,,2,15675,4.15015,0.09997,2565.074,342.2,25.3,
1563,1,SBT2050,2,4,,2,15950,4.14978,0.09242,2572.424,342.2,25.3,
1563,1,SBT2050,2,4,,2,16225,4.15005,0.08534,2579.204,342.2,25.2,
1563,1,SBT2050,2,4,,2,16500,4.14992,0.07859,2585.471,342.2,25.2,
1563,1,SBT2050,2,4,,2,16775,4.15023,0.07309,2591.277,342.2,25.2,
1563,1,SBT2050,2,4,,2,17050,4.15011,0.06816,2596.681,342.2,25.2,
1563,1,SBT2050,2,4,,2,17325,4.14999,0.06322,2601.684,342.2,25.2,
1563,1,SBT2050,2,4,,2,17600,4.15012,0.05876,2606.342,342.2,25.1,
1563,1,SBT2050,2,4,,2,17875,4.149932,0.05556,2610.711,342.2,25.2,
1563,1,SBT2050,2,4,,2,18150,4.14985,0.05188,2614.801,342.2,25.1,
1563,1,SBT2050,2,4,,2,18425,4.14984,0.04886,2618.642,342.2,25.1,
1563,1,SBT2050,2,4,,2,18700,4.14972,0.046152,2622.243,342.2,25.2,
1563,1,SBT2050,2,4,,2,18975,4.15011,0.042962,2625.641,342.2,25.1,
1563,1,SBT2050,2,4,,2,19250,4.14998,0.040946,2628.839,342.2,25.1,
1563,1,SBT2050,2,4,,2,19525,4.15017,0.038289,2631.867,342.2,25.1,
1563,1,SBT2050,2,4,,2,19800,4.15017,0.037029,2634.749,342.2,25.1,
1563,1,SBT2050,2,4,,2,20075,4.14979,0.034726,2637.478,342.2,25.1,
1563,1,SBT2050,2,4,,2,20350,4.14971,0.033954,2640.083,342.2,25.1,
1563,1,SBT2050,2,4,,2,20625,4.14997,0.031913,2642.582,342.2,25.1,
1563,1,SBT2050,2,4,,2,20900,4.14996,0.030466,2644.95,342.2,25.1,
1563,1,SBT2050,2,4,,2,21175,4.15003,0.029352,2647.223,342.2,25.1,
1563,1,SBT2050,2,4,,2,21450,4.14999,0.027352,2649.374,342.2,25.1,
1563,1,SBT2050,2,4,,2,21725,4.15003,0.026401,2651.439,342.2,25.1,
1563,1,SBT2050,2,4,,2,22000,4.15006,0.02484,2653.416,342.2,25.1,
1563,1,SBT2050,2,4,,2,22275,4.14998,0.024182,2655.309,342.2,25.1,
1563,1,SBT2050,2,4,,2,22550,4.15002,0.023214,2657.121,342.2,25.1,
1563,1,SBT2050,2,4,,2,22825,4.14988,0.022515,2658.865,342.2,25.2,
1563,1,SBT2050,2,4,,2,23100,4.1498,0.021161,2660.523,342.2,25.1,
1563,1,SBT2050,2,4,,2,23375,4.1499,0.02042,2662.114,342.2,25.1,
1563,1,SBT2050,2,4,,2,23650,4.15011,0.019862,2663.648,342.2,25.1,
1563,1,SBT2050,2,4,,2,23925,4.149932,0.018952,2665.115,342.2,25.1,
1563,1,SBT2050,2,4,,2,24200,4.15034,0.018584,2666.532,342.2,25.1,
1563,1,SBT2050,2,4,,2,24475,4.14987,0.017516,2667.9,342.2,25.1,
1563,1,SBT2050,2,4,,2,24750,4.1501,0.016654,2669.22,342.2,25.1,
1563,1,SBT2050,2,4,,2,25025,4.15004,0.016619,2670.488,342.2,25.1,
1563,1,SBT2050,2,4,,2,25300,4.149908,0.015958,2671.718,342.2,25.1,
1563,1,SBT2050,2,4,,2,25575,4.15031,0.015212,2672.907,342.2,25.1,
1563,1,SBT2050,2,4,,2,25850,4.14982,0.01454,2674.047,342.2,25.1,
1563,1,SBT2050,2,4,,2,26125,4.15012,0.014077,2675.151,342.2,25.1,
1563,1,SBT2050,2,4,,2,26400,4.15017,0.013918,2676.227,342.2,25.1,
1563,1,SBT2050,2,4,,2,26675,4.14987,0.01336,2677.26,342.2,25.1,
1563,1,SBT2050,2,4,,2,26950,4.149944,0.012856,2678.261,342.2,25.1,
1563,1,SBT2050,2,4,,2,27225,4.15006,0.01272,2679.234,342.2,25.1,
1563,1,SBT2050,2,4,,2,27500,4.14986,0.012432,2680.169,342.2,25.1,
1563,1,SBT2050,2,4,,2,27775,4.15003,0.011648,2681.074,342.2,25.1,
1563,1,SBT2050,2,4,,2,28050,4.149932,0.011344,2681.953,342.2,25.1,
1563,1,SBT2050,2,4,,2,28325,4.14979,0.011159,2682.803,342.2,25.1,
1563,1,SBT2050,2,4,,2,28600,4.14996,0.010751,2683.641,342.2,25.1,
1563,1,SBT2050,2,4,,3,28874,4.14698,0,2684.26,342.2,25,
1563,1,SBT2050,2,4,,3,29149,4.145306,0,2684.26,342.2,25.1,
1563,1,SBT2050,2,4,,3,29424,4.144246,0,2684.26,342.2,25.1,
1563,1,SBT2050,2,4,,3,29699,4.14367,0,2684.26,342.2,25.1,
1563,1,SBT2050,2,4,,3,29974,4.14326,0,2684.26,342.2,25.1,
1563,1,SBT2050,2,4,,3,30249,4.14242,0,2684.26,342.2,25.1,
1563,1,SBT2050,2,4,,3,30524,4.14208,0,2684.26,342.2,25.1,
1563,1,SBT2050,2,4,,4,30798,3.69881,-2.9363,2684.26,494.945,27.5,
1563,1,SBT2050,2,4,,4,31073,3.64633,-2.936,2684.26,719.22,29,
1563,1,SBT2050,2,4,,4,31348,3.580128,-2.936,2684.26,943.495,29.3,
1563,1,SBT2050,2,4,,4,31623,3.50597,-2.9357,2684.26,1167.769,29.4,
1563,1,SBT2050,2,4,,4,31898,3.42878,-2.9356,2684.26,1392.044,29.4,
1563,1,SBT2050,2,4,,4,32173,3.350343,-2.9359,2684.26,1616.318,29.5,
1563,1,SBT2050,2,4,,4,32448,3.26573,-2.9357,2684.26,1840.593,29.8,
1563,1,SBT2050,2,4,,4,32723,3.16731,-2.9356,2684.26,2064.868,30.4,
1563,1,SBT2050,2,4,,4,32998,3.040792,-2.9362,2684.26,2289.142,31.2,
1563,1,SBT2050,2,4,,4,33273,2.84029,-2.9362,2684.26,2513.417,32.6,
1563,1,SBT2050,2,4,,4,33548,2.49988,-1.838,2684.26,2719.123,35,
1563,1,SBT2050,2,4,,4,33823,2.49992,-0.7366,2684.26,2808.466,31.8,
1563,1,SBT2050,2,4,,4,34098,2.49985,-0.42985,2684.26,2850.827,29,
1563,1,SBT2050,2,4,,4,34373,2.49988,-0.31034,2684.26,2878.602,27.5,
1563,1,SBT2050,2,4,,4,34648,2.49985,-0.24079,2684.26,2899.507,26.8,
1563,1,SBT2050,2,4,,4,34923,2.49992,-0.19343,2684.26,2915.982,26.4,
1563,1,SBT2050,2,4,,4,35198,2.49988,-0.15999,2684.26,2929.404,26.1,
1563,1,SBT2050,2,4,,4,35473,2.49994,-0.13575,2684.26,2940.661,25.9,
1563,1,SBT2050,2,4,,4,35748,2.4999,-0.11701,2684.26,2950.296,25.8,
1563,1,SBT2050,2,4,,4,36023,2.49985,-0.10146,2684.26,2958.623,25.7,
1563,1,SBT2050,2,4,,4,36298,2.500063,-0.08773,2684.26,2965.832,25.6,
1563,1,SBT2050,2,4,,4,36573,2.500051,-0.07616,2684.26,2972.075,25.5,
1563,1,SBT2050,2,4,,4,36848,2.50009,-0.06642,2684.26,2977.512,25.5,
1563,1,SBT2050,2,4,,4,37123,2.500063,-0.05838,2684.26,2982.268,25.4,
1563,1,SBT2050,2,4,,4,37398,2.49998,-0.05132,2684.26,2986.441,25.4,
1563,1,SBT2050,2,4,,4,37673,2.49998,-0.045153,2684.26,2990.114,25.4,
1563,1,SBT2050,2,4,,4,37948,2.500218,-0.039705,2684.26,2993.347,25.3,
1563,1,SBT2050,2,4,,4,38223,2.50003,-0.03532,2684.26,2996.204,25.3,
1563,1,SBT2050,2,4,,4,38498,2.50018,-0.031689,2684.26,2998.756,25.3,
1563,1,SBT2050,2,4,,4,38773,2.499932,-0.02816,2684.26,3001.04,25.3,
1563,1,SBT2050,2,4,,4,39048,2.50003,-0.025052,2684.26,3003.072,25.2,
1563,1,SBT2050,2,4,,4,39323,2.50018,-0.022192,2684.26,3004.873,25.2,
1563,1,SBT2050,2,4,,4,39598,2.500075,-0.01967,2684.26,3006.466,25.2,
1563,1,SBT2050,2,4,,4,39873,2.50012,-0.017342,2684.26,3007.868,25.2,
1563,1,SBT2050,2,4,,4,40148,2.5,-0.01522,2684.26,3009.102,25.2,
1563,1,SBT2050,2,4,,4,40423,2.49987,-0.013342,2684.26,3010.192,25.2,
1563,1,SBT2050,2,4,,4,40698,2.500051,-0.012024,2684.26,3011.157,25.2,
1563,1,SBT2050,2,4,,4,40973,2.49999,-0.010612,2684.26,3012.011,25.2,
1563,1,SBT2050,2,4,,5,41247,2.600813,0,2684.26,3012.161,25.2,
1563,1,SBT2050,2,4,,5,41522,2.66819,0,2684.26,3012.161,25.1,
1563,1,SBT2050,2,4,,5,41797,2.70801,0,2684.26,3012.161,25.1,
1563,1,SBT2050,2,4,,5,42072,2.734198,0,2684.26,3012.161,25.1,
1563,1,SBT2050,2,4,,5,42347,2.75232,0,2684.26,3012.161,25.1,
1563,1,SBT2050,2,4,,5,42622,2.76524,0,2684.26,3012.161,25.1,
1563,1,SBT2050,2,4,,5,42825.263,2.77299,-0.0001,2684.26,3012.161,,