File: 1C/Test1441.csv
Request Year:,2018,,,,,,,,,,,,
Test:,1441,,,,,,,,,,,,
Test Description:,,,,,,,,,,,,,
TestRegime Name:,Aging_Performance,,,,,,,,,,,,
TestRegime Suffix:,SHP_LC,,,,,,,,,,,,
TestRegime CellSize:,18650,,,,,,,,,,,,
TestRegime Version:,1,,,,,,,,,,,,
Number Of Cells:,1,,,,,,,,,,,,
LotID:,,,,,,,,,,,,,
Lot Description:,,,,,,,,,,,,,
Date Made:,1/21/2003 12:00 AM,,,,,,,,,,,,
Origin:,Other,,,,,,,,,,,,
Requestor:,Admin,,,,,,,,,,,,
Product ID:,Default product,,,,,,,,,,,,
Storage Temp:,R.T./AMB,,,,,,,,,,,,
Storage Delay:,0 days,,,,,,,,,,,,
Test Temp:,R.T./AMB,,,,,,,,,,,,
Start Time:,4/2/2018 1:53 PM,,,,,,,,,,,,
End Time:,4/2/2018 9:12 PM,,,,,,,,,,,,
Operator Instructions:,,,,,,,,,,,,,
Test,Cell,Rack,Shelf,Position,Cell ID,Step,Total Time (Seconds),Voltage (V),Current (A),Charge Capacity (mAh),Discharge Capacity (mAh),TC1 (Â°C),
1441,1,SBT2050,2,4,,0,1,3.34502,0,0,0,25.1,
1441,1,SBT2050,2,4,,0,172,3.344777,0,0,0,25.1,
1441,1,SBT2050,2,4,,1,343,2.49934,-1.9286,0,31.405,26.3,
1441,1,SBT2050,2,4,,1,514,2.4998,-1.0175,0,95.297,28.7,
1441,1,SBT2050,2,4,,1,685,2.4998,-0.6526,0,134.078,28.7,
1441,1,SBT2050,2,4,,1,856,2.499839,-0.43914,0,159.6,28.1,
1441,1,SBT2050,2,4,,1,1027,2.49993,-0.30892,0,177.113,27.3,
1441,1,SBT2050,2,4,,1,1198,2.499815,-0.2261,0,189.673,26.7,
1441,1,SBT2050,2,4,,1,1369,2.4999,-0.17138,0,199.03,26.3,
1441,1,SBT2050,2,4,,1,1540,2.49989,-0.13063,0,206.15,25.9,
1441,1,SBT2050,2,4,,1,1711,2.5001,-0.09979,0,211.586,25.7,
1441,1,SBT2050,2,4,,1,1882,2.4999,-0.07528,0,215.718,25.5,
1441,1,SBT2050,2,4,,1,2053,2.49999,-0.05532,0,218.804,25.4,
1441,1,SBT2050,2,4,,1,2224,2.500113,-0.040057,0,221.053,25.3,
1441,1,SBT2050,2,4,,1,2395,2.499958,-0.028521,0,222.663,25.2,
1441,1,SBT2050,2,4,,1,2566,2.50008,-0.020494,0,223.814,25.2,
1441,1,SBT2050,2,4,,1,2737,2.49997,-0.015519,0,224.661,25.1,
1441,1,SBT2050,2,4,,1,2908,2.50002,-0.012622,0,225.325,25.1,
1441,1,SBT2050,2,4,,1,3079,2.499982,-0.010866,0,225.88,25.1,
1441,1,SBT2050,2,4,,2,3249,3.52889,2.9361,75.448,226.106,25.6,
1441,1,SBT2050,2,4,,2,3420,3.635792,2.9363,214.905,226.106,27.2,
1441,1,SBT2050,2,4,,2,3591,3.67674,2.9363,354.363,226.106,28.3,
1441,1,SBT2050,2,4,,2,3762,3.70522,2.9364,493.821,226.106,28.6,
1441,1,SBT2050,2,4,,2,3933,3.7308,2.936,633.279,226.106,28.6,
1441,1,SBT2050,2,4,,2,4104,3.760336,2.9364,772.738,226.106,28.6,
1441,1,SBT2050,2,4,,2,4275,3.79085,2.9353,912.196,226.106,28.6,
1441,1,SBT2050,2,4,,2,4446,3.82405,2.9361,1051.653,226.106,28.6,
1441,1,SBT2050,2,4,,2,4617,3.862644,2.9362,1191.111,226.106,28.7,
1441,1,SBT2050,2,4,,2,4788,3.9064,2.936,1330.568,226.106,28.8,
1441,1,SBT2050,2,4,,2,4959,3.954198,2.9363,1470.026,226.106,29,
1441,1,SBT2050,2,4,,2,5130,4.00353,2.9358,1609.484,226.106,29.2,
1441,1,SBT2050,2,4,,2,5301,4.05372,2.9358,1748.942,226.106,29.2,
1441,1,SBT2050,2,4,,2,5472,4.10471,2.9358,1888.4,226.106,29.3,
1441,1,SBT2050,2,4,,2,5643,4.15009,2.7973,2027.392,226.106,29.5,
1441,1,SBT2050,2,4,,2,5814,4.15034,2.1464,2144.034,226.106,29.1,
1441,1,SBT2050,2,4,,2,5985,4.15011,1.6564,2233.844,226.106,28.4,
1441,1,SBT2050,2,4,,2,6156,4.15016,1.297,2303.521,226.106,27.6,
1441,1,SBT2050,2,4,,2,6327,4.1503,1.0394,2358.702,226.106,27,
1441,1,SBT2050,2,4,,2,6498,4.15007,0.8519,2403.446,226.106,26.6,
1441,1,SBT2050,2,4,,2,6669,4.14997,0.7139,2440.487,226.106,26.2,
1441,1,SBT2050,2,4,,2,6840,4.15012,0.6072,2471.72,226.106,26,
1441,1,SBT2050,2,4,,2,7011,4.150026,0.5216,2498.438,226.106,25.8,
1441,1,SBT2050,2,4,,2,7182,4.1501,0.45527,2521.604,226.106,25.7,
1441,1,SBT2050,2,4,,2,7353,4.15006,0.40173,2541.901,226.106,25.5,
1441,1,SBT2050,2,4,,2,7524,4.15013,0.357,2559.869,226.106,25.5,
1441,1,SBT2050,2,4,,2,7695,4.15004,0.31851,2575.892,226.106,25.4,
1441,1,SBT2050,2,4,,2,7866,4.14995,0.28789,2590.287,226.106,25.4,
1441,1,SBT2050,2,4,,2,8037,4.14988,0.26034,2603.297,226.106,25.3,
1441,1,SBT2050,2,4,,2,8208,4.15014,0.23666,2615.092,226.106,25.3,
1441,1,SBT2050,2,4,,2,8379,4.14992,0.21673,2625.835,226.106,25.2,
1441,1,SBT2050,2,4,,2,8550,4.15018,0.19811,2635.659,226.106,25.3,
1441,1,SBT2050,2,4,,2,8721,4.15006,0.1813,2644.659,226.106,25.2,
1441,1,SBT2050,2,4,,2,8892,4.150026,0.16677,2652.934,226.106,25.2,
1441,1,SBT2050,2,4,,2,9063,4.14989,0.15386,2660.552,226.106,25.2,
1441,1,SBT2050,2,4,,2,9234,4.14999,0.14141,2667.577,226.106,25.2,
1441,1,SBT2050,2,4,,2,9405,4.15019,0.13171,2674.054,226.106,25.2,
1441,1,SBT2050,2,4,,2,9576,4.14997,0.12131,2680.043,226.106,25.2,
1441,1,SBT2050,2,4,,2,9747,4.15023,0.112,2685.572,226.106,25.1,
1441,1,SBT2050,2,4,,2,9918,4.15013,0.10381,2690.716,226.106,25.1,
1441,1,SBT2050,2,4,,2,10089,4.14988,0.09658,2695.484,226.106,25.1,
1441,1,SBT2050,2,4,,2,10260,4.150014,0.08961,2699.903,226.106,25.1,
1441,1,SBT2050,2,4,,2,10431,4.15009,0.08345,2704.013,226.106,25.1,
1441,1,SBT2050,2,4,,2,10602,4.15005,0.07772,2707.849,226.106,25.1,
1441,1,SBT2050,2,4,,2,10773,4.15016,0.07213,2711.398,226.106,25,
1441,1,SBT2050,2,4,,2,10944,4.15004,0.06703,2714.715,226.106,25.1,
1441,1,SBT2050,2,4,,2,11115,4.14997,0.0635,2717.809,226.106,25,
1441,1,SBT2050,2,4,,2,11286,4.15007,0.05757,2720.689,226.106,25.1,
1441,1,SBT2050,2,4,,2,11457,4.14994,0.05497,2723.366,226.106,25,
1441,1,SBT2050,2,4,,2,11628,4.14994,0.05157,2725.886,226.106,25.1,
1441,1,SBT2050,2,4,,2,11799,4.14991,0.04781,2728.246,226.106,25,
1441,1,SBT2050,2,4,,2,11970,4.15013,0.045498,2730.468,226.106,25.1,
1441,1,SBT2050,2,4,,2,12141,4.15005,0.042385,2732.547,226.106,25,
1441,1,SBT2050,2,4,,2,12312,4.150002,0.039928,2734.512,226.106,25.1,
1441,1,SBT2050,2,4,,2,12483,4.14978,0.037234,2736.344,226.106,25,
1441,1,SBT2050,2,4,,2,12654,4.14987,0.03549,2738.055,226.106,25,
1441,1,SBT2050,2,4,,2,12825,4.14995,0.033419,2739.686,226.106,25.1,
1441,1,SBT2050,2,4,,2,12996,4.15014,0.031414,2741.213,226.106,25,
1441,1,SBT2050,2,4,,2,13167,4.14981,0.029915,2742.656,226.106,25.1,
1441,1,SBT2050,2,4,,2,13338,4.15011,0.027859,2744.035,226.106,25,
1441,1,SBT2050,2,4,,2,13509,4.15007,0.026416,2745.337,226.106,25.1,
1441,1,SBT2050,2,4,,2,13680,4.14987,0.025376,2746.56,226.106,25.1,
1441,1,SBT2050,2,4,,2,13851,4.150026,0.023749,2747.721,226.106,25,
1441,1,SBT2050,2,4,,2,14022,4.14989,0.022422,2748.824,226.106,25.1,
1441,1,SBT2050,2,4,,2,14193,4.14992,0.021802,2749.884,226.106,25,
1441,1,SBT2050,2,4,,2,14364,4.15009,0.020287,2750.891,226.106,25,
1441,1,SBT2050,2,4,,2,14535,4.15013,0.018964,2751.834,226.106,25.1,
1441,1,SBT2050,2,4,,2,14706,4.1498,0.01909,2752.731,226.106,25,
1441,1,SBT2050,2,4,,2,14877,4.14953,0.018026,2753.583,226.106,25,
1441,1,SBT2050,2,4,,2,15048,4.15016,0.016519,2754.408,226.106,25.1,
1441,1,SBT2050,2,4,,2,15219,4.15019,0.016355,2755.184,226.106,25,
1441,1,SBT2050,2,4,,2,15390,4.150014,0.015581,2755.929,226.106,25,
1441,1,SBT2050,2,4,,2,15561,4.14994,0.014488,2756.634,226.106,25,
1441,1,SBT2050,2,4,,2,15732,4.15005,0.014397,2757.322,226.106,25,
1441,1,SBT2050,2,4,,2,15903,4.14995,0.013018,2757.965,226.106,25,
1441,1,SBT2050,2,4,,2,16074,4.150002,0.013365,2758.579,226.106,25.1,
1441,1,SBT2050,2,4,,2,16245,4.15035,0.011744,2759.184,226.106,25.1,
1441,1,SBT2050,2,4,,2,16416,4.15011,0.012184,2759.746,226.106,25,
1441,1,SBT2050,2,4,,2,16587,4.150014,0.010878,2760.294,226.106,25.1,
1441,1,SBT2050,2,4,,2,16758,4.15023,0.010896,2760.812,226.106,25,
1441,1,SBT2050,2,4,,3,16928,4.14789,0,2760.984,226.106,25,
1441,1,SBT2050,2,4,,3,17099,4.14704,0,2760.984,226.106,25.1,
1441,1,SBT2050,2,4,,3,17270,4.14663,0,2760.984,226.106,25,
1441,1,SBT2050,2,4,,3,17441,4.14643,0,2760.984,226.106,25,
1441,1,SBT2050,2,4,,3,17612,4.14615,0,2760.984,226.106,25,
1441,1,SBT2050,2,4,,3,17783,4.14575,0,2760.984,226.106,25,
1441,1,SBT2050,2,4,,3,17954,4.14595,0,2760.984,226.106,25,
1441,1,SBT2050,2,4,,3,18125,4.145384,0,2760.984,226.106,25,
1441,1,SBT2050,2,4,,3,18296,4.14582,0,2760.984,226.106,25,
1441,1,SBT2050,2,4,,3,18467,4.14536,0,2760.984,226.106,25,
1441,1,SBT2050,2,4,,4,18637,3.88244,-2.9356,2760.984,242.882,25.2,
1441,1,SBT2050,2,4,,4,18808,3.80189,-2.936,2760.984,382.34,26.9,
1441,1,SBT2050,2,4,,4,18979,3.774608,-2.9364,2760.984,521.798,27.7,
1441,1,SBT2050,2,4,,4,19150,3.73897,-2.9358,2760.984,661.256,28.1,
1441,1,SBT2050,2,4,,4,19321,3.69665,-2.9358,2760.984,800.714,28,
1441,1,SBT2050,2,4,,4,19492,3.6529,-2.9358,2760.984,940.172,28,
1441,1,SBT2050,2,4,,4,19663,3.60622,-2.9362,2760.984,1079.63,28,
1441,1,SBT2050,2,4,,4,19834,3.5572,-2.936,2760.984,1219.087,28.1,
1441,1,SBT2050,2,4,,4,20005,3.50758,-2.9362,2760.984,1358.545,28.2,
1441,1,SBT2050,2,4,,4,20176,3.45939,-2.9362,2760.984,1498.003,28.3,
1441,1,SBT2050,2,4,,4,20347,3.414554,-2.9356,2760.984,1637.461,28.3,
1441,1,SBT2050,2,4,,4,20518,3.37103,-2.9359,2760.984,1776.919,28.4,
1441,1,SBT2050,2,4,,4,20689,3.32679,-2.9357,2760.984,1916.378,28.6,
1441,1,SBT2050,2,4,,4,20860,3.27752,-2.9362,2760.984,2055.835,28.8,
1441,1,SBT2050,2,4,,4,21031,3.21742,-2.936,2760.984,2195.293,29.1,
1441,1,SBT2050,2,4,,4,21202,3.13802,-2.9357,2760.984,2334.751,29.6,
1441,1,SBT2050,2,4,,4,21373,3.02495,-2.9362,2760.984,2474.209,30.3,
1441,1,SBT2050,2,4,,4,21544,2.84447,-2.9362,2760.984,2613.667,31.5,
1441,1,SBT2050,2,4,,4,21715,2.49965,-2.7757,2760.984,2752.944,33.8,
1441,1,SBT2050,2,4,,4,21886,2.49977,-1.412,2760.984,2847.47,34.1,
1441,1,SBT2050,2,4,,4,22057,2.49973,-0.7685,2760.984,2897.444,31.9,
1441,1,SBT2050,2,4,,4,22228,2.499809,-0.45587,2760.984,2925.693,29.8,
1441,1,SBT2050,2,4,,4,22399,2.49976,-0.29971,2760.984,2943.218,28.1,
1441,1,SBT2050,2,4,,4,22570,2.49976,-0.21113,2760.984,2955.186,27.1,
1441,1,SBT2050,2,4,,4,22741,2.49979,-0.15378,2760.984,2963.77,26.5,
1441,1,SBT2050,2,4,,4,22912,2.499976,-0.11256,2760.984,2970.043,26.1,
1441,1,SBT2050,2,4,,4,23083,2.5,-0.08254,2760.984,2974.642,25.8,
1441,1,SBT2050,2,4,,4,23254,2.499964,-0.06021,2760.984,2978.005,25.6,
1441,1,SBT2050,2,4,,4,23425,2.50014,-0.043239,2760.984,2980.439,25.4,
1441,1,SBT2050,2,4,,4,23596,2.50001,-0.03109,2760.984,2982.19,25.3,
1441,1,SBT2050,2,4,,4,23767,2.49986,-0.02299,2760.984,2983.465,25.2,
1441,1,SBT2050,2,4,,4,23938,2.50005,-0.017148,2760.984,2984.41,25.2,
1441,1,SBT2050,2,4,,4,24109,2.50006,-0.013627,2760.984,2985.139,25.1,
1441,1,SBT2050,2,4,,4,24280,2.499964,-0.011744,2760.984,2985.738,25.1,
1441,1,SBT2050,2,4,,4,24451,2.50021,-0.010574,2760.984,2986.261,25.1,
1441,1,SBT2050,2,4,,5,24621,2.56986,0,2760.984,2986.384,25.1,
1441,1,SBT2050,2,4,,5,24792,2.63068,0,2760.984,2986.384,25,
1441,1,SBT2050,2,4,,5,24963,2.673496,0,2760.984,2986.384,25.1,
1441,1,SBT2050,2,4,,5,25134,2.704227,0,2760.984,2986.384,25.1,
1441,1,SBT2050,2,4,,5,25305,2.72748,0,2760.984,2986.384,25,
1441,1,SBT2050,2,4,,5,25476,2.74501,0,2760.984,2986.384,25,
1441,1,SBT2050,2,4,,5,25647,2.75958,0,2760.984,2986.384,25.1,
1441,1,SBT2050,2,4,,5,25818,2.77107,0,2760.984,2986.384,25,
1441,1,SBT2050,2,4,,5,25989,2.78008,0,2760.984,2986.384,25.1,
1441,1,SBT2050,2,4,,5,26160,2.78834,0,2760.984,2986.384,25.1,
1441,1,SBT2050,2,4,,5,26294.197,2.79388,-9.9E-05,2760.984,2986.384,,